File: data/public/sdbs/processed/samples/(1,2-epoxyethyl)benzene.csv
Wavenumber,Intensity
4000.0,0.0
3984.21,92.1875
3968.42,91.875
3952.63,92.1875
3936.84,92.1875
3921.05,91.875
3905.26,92.1875
3889.47,92.5
3873.68,91.5625
3857.89,91.5625
3842.11,92.5
3826.32,92.8125
3810.53,92.5
3794.74,93.125
3778.95,92.8125
3763.16,91.875
3747.37,92.1875
3731.58,92.1875
3715.79,92.1875
3700.0,92.5
3684.21,92.5
3668.42,92.1875
3652.63,92.5
3636.84,93.125
3621.05,93.4375
3605.26,93.75
3589.47,93.75
3573.68,94.0625
3557.89,94.375
3542.11,94.375
3526.32,94.0625
3510.53,94.0625
3494.74,93.75
3478.95,93.4375
3463.16,93.125
3447.37,92.8125
3431.58,92.5
3415.79,92.1875
3400.0,90.9375
3384.21,85.9375
3368.42,74.375
3352.63,59.0625
3336.84,51.875
3321.05,60.9375
3305.26,58.125
3289.47,61.5625
3273.68,83.75
3257.89,84.0625
3242.11,75.0
3226.32,90.9375
3210.53,93.125
3194.74,93.75
3178.95,94.375
3163.16,94.375
3147.37,94.6875
3131.58,94.375
3115.79,94.6875
3100.0,94.6875
3084.21,94.6875
3068.42,94.6875
3052.63,94.375
3036.84,94.0625
3021.05,94.0625
3005.26,94.375
2989.47,94.6875
2973.68,94.6875
2957.89,94.375
2942.11,94.375
2926.32,94.375
2910.53,94.6875
2894.74,94.6875
2878.95,94.6875
2863.16,94.375
2847.37,94.375
2831.58,94.0625
2815.79,93.75
2800.0,93.4375
2784.21,92.8125
2768.42,93.4375
2752.63,93.4375
2736.84,94.0625
2721.05,94.6875
2705.26,94.375
2689.47,94.6875
2673.68,94.6875
2657.89,94.375
2642.11,94.6875
2626.32,93.75
2610.53,92.8125
2594.74,91.875
2578.95,90.625
2563.16,89.0625
2547.37,87.8125
2531.58,90.625
2515.79,93.4375
2500.0,93.4375
2484.21,91.5625
2468.42,89.6875
2452.63,88.4375
2436.84,90.0
2421.05,93.125
2405.26,93.75
2389.47,92.8125
2373.68,90.9375
2357.89,89.375
2342.11,90.0
2326.32,93.125
2310.53,93.125
2294.74,91.875
2278.95,89.6875
2263.16,89.6875
2247.37,90.3125
2231.58,89.0625
2215.79,90.625
2200.0,82.8125
2184.21,89.6875
2168.42,90.3125
2152.63,90.625
2136.84,91.5625
2121.05,91.875
2105.26,90.9375
2089.47,89.375
2073.68,79.6875
2057.89,81.25
2042.11,89.0625
2026.32,89.375
2010.53,91.25
1994.74,90.9375
1978.95,90.3125
1963.16,91.5625
1947.37,89.6875
1931.58,86.5625
1915.79,35.625
1900.0,75.3125
1884.21,43.125
1868.42,78.75
1852.63,41.25
1836.84,85.0
1821.05,90.9375
1805.26,91.25
1789.47,85.625
1773.68,55.3125
1757.89,52.1875
1742.11,84.375
1726.32,90.3125
1710.53,91.875
1694.74,88.75
1678.95,84.375
1663.16,75.0
1647.37,84.6875
1631.58,76.875
1615.79,88.75
1600.0,87.5
1584.21,70.0
1568.42,68.125
1552.63,87.5
1536.84,89.6875
1521.05,87.5
1505.26,47.8125
1489.47,83.4375
1473.68,83.4375
1457.89,85.3125
1442.11,81.5625
1426.32,77.8125
1410.53,78.125
1394.74,77.8125
1378.95,89.0625
1363.16,90.3125
1347.37,88.125
1331.58,72.5
1315.79,77.8125
1300.0,90.0
1284.21,89.6875
1268.42,76.25
1252.63,84.0625
1236.84,85.0
1221.05,77.1875
1205.26,44.0625
1189.47,75.9375
1173.68,85.625
1157.89,89.375
1142.11,88.4375
1126.32,84.375
1110.53,75.9375
1094.74,76.875
1078.95,61.875
1063.16,18.4375
1047.37,13.125
1031.58,58.4375
1015.79,74.0625
1000.0,78.4375
984.211,62.1875
968.421,53.4375
952.632,59.375
936.842,75.0
921.053,72.8125
905.263,29.375
889.474,5.0
873.684,33.125
857.895,66.25
842.105,79.0625
826.316,68.75
810.526,5.0
794.737,49.375
778.947,82.1875
763.158,85.625
747.368,89.6875
731.579,91.875
715.789,91.875
700,91.5625
684.211,92.8125
668.421,90.9375
652.632,81.875
636.842,43.4375
621.053,82.1875
605.263,86.875
589.474,63.4375
573.684,45
557.895,83.75
542.105,89.6875
526.316,91.5625
510.526,90.9375
494.737,91.25
478.947,92.1875
463.158,94.0625
447.368,92.8125
431.579,85.9375
415.789,81.875
400.0,80.9375