File: data/public/sdbs/processed/samples/(dimethylaminomethyl)ferrocene.csv
Wavenumber,Intensity
4000.0,0.0
3984.21,88.75
3968.42,86.25
3952.63,79.0625
3936.84,80.625
3921.05,88.4375
3905.26,90.625
3889.47,90.9375
3873.68,90.9375
3857.89,90.9375
3842.11,91.25
3826.32,91.5625
3810.53,91.25
3794.74,90.625
3778.95,86.875
3763.16,83.4375
3747.37,83.4375
3731.58,84.6875
3715.79,83.75
3700.0,81.875
3684.21,79.6875
3668.42,77.1875
3652.63,75.0
3636.84,72.5
3621.05,70.3125
3605.26,68.75
3589.47,66.875
3573.68,65.625
3557.89,65.0
3542.11,65.3125
3526.32,65.9375
3510.53,66.25
3494.74,66.5625
3478.95,67.5
3463.16,66.875
3447.37,66.25
3431.58,65.9375
3415.79,65.625
3400.0,64.0625
3384.21,47.8125
3368.42,24.6875
3352.63,44.375
3336.84,66.5625
3321.05,72.5
3305.26,62.8125
3289.47,23.125
3273.68,18.4375
3257.89,9.6875
3242.11,30.9375
3226.32,36.25
3210.53,23.75
3194.74,33.4375
3178.95,9.6875
3163.16,25.9375
3147.37,4.6875
3131.58,12.5
3115.79,48.4375
3100.0,61.25
3084.21,73.4375
3068.42,84.375
3052.63,87.8125
3036.84,87.8125
3021.05,89.0625
3005.26,90.3125
2989.47,90.9375
2973.68,90.0
2957.89,88.75
2942.11,89.0625
2926.32,89.6875
2910.53,90.625
2894.74,90.3125
2878.95,91.25
2863.16,92.1875
2847.37,91.875
2831.58,91.5625
2815.79,91.875
2800.0,90.0
2784.21,86.875
2768.42,88.4375
2752.63,91.25
2736.84,90.9375
2721.05,93.125
2705.26,93.4375
2689.47,90.9375
2673.68,90.9375
2657.89,90.0
2642.11,91.25
2626.32,93.75
2610.53,93.4375
2594.74,93.125
2578.95,93.4375
2563.16,94.375
2547.37,94.6875
2531.58,94.6875
2515.79,94.6875
2500.0,94.6875
2484.21,94.375
2468.42,93.75
2452.63,92.8125
2436.84,92.5
2421.05,92.8125
2405.26,92.8125
2389.47,93.4375
2373.68,93.4375
2357.89,92.8125
2342.11,91.5625
2326.32,89.375
2310.53,84.6875
2294.74,80.0
2278.95,77.1875
2263.16,77.5
2247.37,75.625
2231.58,72.8125
2215.79,70.0
2200.0,66.5625
2184.21,55.0
2168.42,42.5
2152.63,54.6875
2136.84,59.0625
2121.05,60.625
2105.26,61.25
2089.47,66.5625
2073.68,74.0625
2057.89,81.875
2042.11,85.9375
2026.32,87.5
2010.53,88.75
1994.74,90.0
1978.95,90.3125
1963.16,89.6875
1947.37,89.0625
1931.58,86.5625
1915.79,83.75
1900.0,73.4375
1884.21,30.9375
1868.42,19.375
1852.63,12.1875
1836.84,36.875
1821.05,44.0625
1805.26,65.0
1789.47,53.125
1773.68,62.1875
1757.89,54.375
1742.11,65.3125
1726.32,64.0625
1710.53,32.8125
1694.74,63.4375
1678.95,65.0
1663.16,83.75
1647.37,76.875
1631.58,84.375
1615.79,72.1875
1600.0,38.75
1584.21,30.9375
1568.42,62.1875
1552.63,52.1875
1536.84,50.0
1521.05,73.125
1505.26,83.75
1489.47,81.25
1473.68,56.875
1457.89,27.8125
1442.11,65.625
1426.32,71.5625
1410.53,40.9375
1394.74,65.9375
1378.95,51.5625
1363.16,45.3125
1347.37,78.4375
1331.58,81.875
1315.79,68.75
1300.0,44.375
1284.21,9.0625
1268.42,15.625
1252.63,5.9375
1236.84,24.375
1221.05,17.5
1205.26,71.5625
1189.47,84.375
1173.68,81.875
1157.89,85.0
1142.11,85.3125
1126.32,51.5625
1110.53,84.6875
1094.74,90.0
1078.95,84.6875
1063.16,80.0
1047.37,73.4375
1031.58,52.5
1015.79,20.3125
1000.0,17.1875
984.211,9.375
968.421,5.9375
952.632,17.8125
936.842,50.3125
921.053,80.9375
905.263,88.125
889.474,64.0625
873.684,57.5
857.895,87.5
842.105,94.375
826.316,94.6875
810.526,94.0625
794.737,93.75
778.947,93.75
763.158,93.75
747.368,93.4375
731.579,94.0625
715.789,93.4375
700,87.5
684.211,92.1875
668.421,91.875
652.632,91.875
636.842,92.1875
621.053,92.5
605.263,92.5
589.474,89.375
573.684,68.4375
557.895,18.75
542.105,13.4375
526.316,9.0625
510.526,6.875
494.737,38.125
478.947,59.6875
463.158,76.5625
447.368,82.1875
431.579,71.25
415.789,60.0
400.0,54.375