File: data/public/sdbs/processed/samples/10-acetoxy-2,3-epoxy-4,9,10a,12-tetrahydroxy-1,1,4,12-tetramethylperhydro-7,8a-ethanobenz(f)azulene.csv
Wavenumber,Intensity
4000.0,0.0
3984.21,91.5625
3968.42,91.5625
3952.63,92.1875
3936.84,91.875
3921.05,91.875
3905.26,92.1875
3889.47,92.1875
3873.68,92.1875
3857.89,92.5
3842.11,92.5
3826.32,93.125
3810.53,93.125
3794.74,93.4375
3778.95,93.4375
3763.16,93.125
3747.37,91.875
3731.58,89.6875
3715.79,64.375
3700.0,72.5
3684.21,72.1875
3668.42,67.1875
3652.63,42.8125
3636.84,47.8125
3621.05,56.25
3605.26,54.6875
3589.47,55.9375
3573.68,64.6875
3557.89,73.4375
3542.11,77.8125
3526.32,80.3125
3510.53,80.3125
3494.74,79.375
3478.95,81.875
3463.16,83.4375
3447.37,84.0625
3431.58,84.6875
3415.79,85.0
3400.0,85.9375
3384.21,86.875
3368.42,88.125
3352.63,83.75
3336.84,85.625
3321.05,82.1875
3305.26,66.875
3289.47,33.75
3273.68,11.5625
3257.89,5.0
3242.11,10.0
3226.32,23.125
3210.53,18.75
3194.74,30.625
3178.95,77.1875
3163.16,85.625
3147.37,89.375
3131.58,90.0
3115.79,89.375
3100.0,89.6875
3084.21,89.375
3068.42,89.6875
3052.63,90.625
3036.84,90.9375
3021.05,91.875
3005.26,92.5
2989.47,92.8125
2973.68,93.125
2957.89,93.75
2942.11,93.75
2926.32,93.4375
2910.53,93.4375
2894.74,93.4375
2878.95,93.75
2863.16,93.75
2847.37,93.4375
2831.58,93.4375
2815.79,93.75
2800.0,94.0625
2784.21,93.75
2768.42,93.75
2752.63,94.0625
2736.84,93.75
2721.05,94.0625
2705.26,93.75
2689.47,93.75
2673.68,94.0625
2657.89,94.0625
2642.11,94.0625
2626.32,94.0625
2610.53,94.375
2594.74,94.375
2578.95,94.375
2563.16,94.375
2547.37,94.375
2531.58,94.375
2515.79,94.6875
2500.0,94.6875
2484.21,94.6875
2468.42,94.375
2452.63,94.375
2436.84,94.6875
2421.05,94.6875
2405.26,94.6875
2389.47,95.0
2373.68,94.6875
2357.89,94.6875
2342.11,94.375
2326.32,94.375
2310.53,94.0625
2294.74,94.0625
2278.95,93.75
2263.16,93.4375
2247.37,92.5
2231.58,89.375
2215.79,73.125
2200.0,34.375
2184.21,61.5625
2168.42,85.0
2152.63,82.5
2136.84,67.5
2121.05,81.25
2105.26,89.0625
2089.47,90.9375
2073.68,91.875
2057.89,92.8125
2042.11,93.125
2026.32,93.4375
2010.53,93.4375
1994.74,93.4375
1978.95,93.4375
1963.16,93.125
1947.37,93.125
1931.58,92.5
1915.79,90.625
1900.0,83.75
1884.21,69.0625
1868.42,47.1875
1852.63,50.9375
1836.84,65.0
1821.05,76.25
1805.26,85.0
1789.47,80.3125
1773.68,80.625
1757.89,52.5
1742.11,40.3125
1726.32,67.5
1710.53,75.625
1694.74,80.3125
1678.95,73.75
1663.16,73.75
1647.37,72.5
1631.58,69.375
1615.79,58.4375
1600.0,46.5625
1584.21,71.25
1568.42,79.375
1552.63,85.9375
1536.84,81.25
1521.05,87.8125
1505.26,83.75
1489.47,84.6875
1473.68,82.5
1457.89,88.125
1442.11,81.5625
1426.32,79.0625
1410.53,76.25
1394.74,77.1875
1378.95,81.875
1363.16,78.75
1347.37,68.75
1331.58,80.0
1315.79,85.0
1300.0,84.6875
1284.21,82.5
1268.42,68.75
1252.63,79.375
1236.84,67.5
1221.05,88.125
1205.26,75.9375
1189.47,89.0625
1173.68,87.8125
1157.89,76.5625
1142.11,81.5625
1126.32,82.8125
1110.53,80.0
1094.74,75.9375
1078.95,76.875
1063.16,88.4375
1047.37,82.8125
1031.58,82.8125
1015.79,86.25
1000.0,89.0625
984.211,91.5625
968.421,93.4375
952.632,94.0625
936.842,88.4375
921.053,71.25
905.263,89.0625
889.474,82.1875
873.684,92.1875
857.895,82.1875
842.105,87.1875
826.316,91.5625
810.526,94.375
794.737,94.6875
778.947,94.375
763.158,93.125
747.368,89.6875
731.579,82.5
715.789,89.375
700,86.5625
684.211,80.0
668.421,79.6875
652.632,80.0
636.842,80.9375
621.053,80.9375
605.263,81.25
589.474,83.125
573.684,84.6875
557.895,79.6875
542.105,84.375
526.316,84.6875
510.526,83.75
494.737,83.125
478.947,81.875
463.158,80.9375
447.368,79.6875
431.579,78.4375
415.789,72.1875
400.0,67.8125