File: data/public/sdbs/processed/samples/2,2,2-trichloroethyl 3,3-dimethyl-7-oxo-6-phenylacetamido-4-thia-1-azabicyclo[3.2.0]heptane-2-carboxylate 4-oxide.csv
Wavenumber,Intensity
4000.0,0.0
3984.21,92.1875
3968.42,92.1875
3952.63,92.1875
3936.84,91.875
3921.05,91.875
3905.26,91.875
3889.47,91.5625
3873.68,91.25
3857.89,91.25
3842.11,91.25
3826.32,91.25
3810.53,91.5625
3794.74,91.5625
3778.95,91.25
3763.16,90.9375
3747.37,90.625
3731.58,90.3125
3715.79,90.0
3700.0,89.6875
3684.21,89.375
3668.42,89.375
3652.63,89.375
3636.84,89.6875
3621.05,89.0625
3605.26,88.4375
3589.47,78.75
3573.68,77.5
3557.89,85.3125
3542.11,86.25
3526.32,86.25
3510.53,85.625
3494.74,85.0
3478.95,85.0
3463.16,84.6875
3447.37,84.6875
3431.58,84.6875
3415.79,85.0
3400.0,86.25
3384.21,87.1875
3368.42,87.1875
3352.63,84.375
3336.84,84.6875
3321.05,80.9375
3305.26,70.0
3289.47,41.5625
3273.68,13.125
3257.89,5.3125
3242.11,10.0
3226.32,26.25
3210.53,19.6875
3194.74,30.3125
3178.95,75.9375
3163.16,84.0625
3147.37,87.8125
3131.58,88.4375
3115.79,87.8125
3100.0,88.4375
3084.21,88.4375
3068.42,88.4375
3052.63,89.0625
3036.84,89.375
3021.05,90.0
3005.26,90.9375
2989.47,91.5625
2973.68,91.5625
2957.89,92.1875
2942.11,92.5
2926.32,92.5
2910.53,92.1875
2894.74,92.5
2878.95,92.1875
2863.16,92.1875
2847.37,92.5
2831.58,92.5
2815.79,92.8125
2800.0,92.8125
2784.21,92.8125
2768.42,93.125
2752.63,93.4375
2736.84,93.4375
2721.05,93.4375
2705.26,93.75
2689.47,93.75
2673.68,93.75
2657.89,94.0625
2642.11,94.0625
2626.32,94.0625
2610.53,94.375
2594.74,94.375
2578.95,94.375
2563.16,94.375
2547.37,94.6875
2531.58,95.0
2515.79,94.6875
2500.0,94.6875
2484.21,94.6875
2468.42,94.6875
2452.63,94.375
2436.84,94.375
2421.05,94.0625
2405.26,93.75
2389.47,93.125
2373.68,91.875
2357.89,89.0625
2342.11,80.3125
2326.32,58.125
2310.53,55.0
2294.74,68.125
2278.95,51.5625
2263.16,82.5
2247.37,89.0625
2231.58,91.5625
2215.79,91.25
2200.0,81.875
2184.21,58.75
2168.42,78.75
2152.63,88.125
2136.84,90.9375
2121.05,91.875
2105.26,92.5
2089.47,93.125
2073.68,93.75
2057.89,94.0625
2042.11,94.0625
2026.32,93.75
2010.53,93.4375
1994.74,92.8125
1978.95,92.1875
1963.16,90.0
1947.37,81.5625
1931.58,66.5625
1915.79,69.0625
1900.0,78.125
1884.21,72.1875
1868.42,48.75
1852.63,50.9375
1836.84,68.4375
1821.05,79.6875
1805.26,88.4375
1789.47,90.9375
1773.68,87.5
1757.89,71.5625
1742.11,63.75
1726.32,79.375
1710.53,78.125
1694.74,82.5
1678.95,83.4375
1663.16,83.125
1647.37,76.25
1631.58,79.6875
1615.79,84.375
1600.0,86.25
1584.21,88.125
1568.42,87.5
1552.63,87.5
1536.84,87.5
1521.05,85.3125
1505.26,69.0625
1489.47,80.3125
1473.68,79.6875
1457.89,84.0625
1442.11,79.6875
1426.32,71.875
1410.53,80.0
1394.74,86.5625
1378.95,90.625
1363.16,90.625
1347.37,89.375
1331.58,84.375
1315.79,87.1875
1300.0,87.5
1284.21,85.3125
1268.42,80.3125
1252.63,76.5625
1236.84,85.9375
1221.05,85.625
1205.26,90.625
1189.47,91.5625
1173.68,91.25
1157.89,90.625
1142.11,90.0
1126.32,88.75
1110.53,88.125
1094.74,91.875
1078.95,92.8125
1063.16,91.875
1047.37,90.3125
1031.58,93.4375
1015.79,92.5
1000.0,91.875
984.211,91.5625
968.421,87.1875
952.632,90.0
936.842,93.4375
921.053,89.6875
905.263,66.875
889.474,85.625
873.684,89.375
857.895,75.9375
842.105,68.125
826.316,74.375
810.526,83.125
794.737,92.1875
778.947,94.6875
763.158,93.4375
747.368,92.1875
731.579,91.875
715.789,91.875
700,92.1875
684.211,93.75
668.421,92.1875
652.632,85.9375
636.842,85.625
621.053,88.4375
605.263,90.0
589.474,90.0
573.684,90.3125
557.895,91.25
542.105,91.5625
526.316,91.5625
510.526,92.5
494.737,93.125
478.947,91.25
463.158,87.5
447.368,82.8125
431.579,79.6875
415.789,77.5
400.0,75.9375