File: data/public/sdbs/processed/samples/2,3-epoxy-1,1,4,12-tetramethylperhydro-7,8a-ethanobenz(f)azulene-4,8,10,10a,12-pentol.csv
Wavenumber,Intensity
4000.0,0.0
3984.21,87.5
3968.42,86.5625
3952.63,86.25
3936.84,85.625
3921.05,84.375
3905.26,83.75
3889.47,82.5
3873.68,82.1875
3857.89,81.5625
3842.11,80.3125
3826.32,80.0
3810.53,79.375
3794.74,78.4375
3778.95,77.1875
3763.16,74.6875
3747.37,69.0625
3731.58,60.9375
3715.79,47.1875
3700.0,36.25
3684.21,24.0625
3668.42,11.875
3652.63,8.4375
3636.84,6.875
3621.05,5.625
3605.26,4.6875
3589.47,7.1875
3573.68,9.0625
3557.89,11.25
3542.11,13.4375
3526.32,15.9375
3510.53,17.8125
3494.74,21.25
3478.95,24.0625
3463.16,26.875
3447.37,31.875
3431.58,39.0625
3415.79,47.5
3400.0,55.0
3384.21,62.5
3368.42,68.75
3352.63,72.5
3336.84,69.6875
3321.05,68.125
3305.26,41.5625
3289.47,20.0
3273.68,17.5
3257.89,16.875
3242.11,22.8125
3226.32,35.0
3210.53,49.6875
3194.74,71.25
3178.95,76.5625
3163.16,80.0
3147.37,81.25
3131.58,81.875
3115.79,81.875
3100.0,82.5
3084.21,83.4375
3068.42,83.4375
3052.63,85.0
3036.84,85.9375
3021.05,86.5625
3005.26,87.1875
2989.47,87.5
2973.68,88.125
2957.89,87.8125
2942.11,88.4375
2926.32,88.75
2910.53,89.375
2894.74,89.375
2878.95,90.0
2863.16,90.3125
2847.37,90.3125
2831.58,90.3125
2815.79,90.3125
2800.0,90.9375
2784.21,91.25
2768.42,90.9375
2752.63,91.5625
2736.84,91.5625
2721.05,91.5625
2705.26,91.5625
2689.47,91.5625
2673.68,91.25
2657.89,90.9375
2642.11,91.5625
2626.32,91.875
2610.53,92.1875
2594.74,92.5
2578.95,92.5
2563.16,92.5
2547.37,92.5
2531.58,92.8125
2515.79,93.125
2500.0,93.4375
2484.21,93.4375
2468.42,93.75
2452.63,94.0625
2436.84,94.375
2421.05,94.375
2405.26,94.375
2389.47,94.6875
2373.68,95.0
2357.89,94.6875
2342.11,94.375
2326.32,94.0625
2310.53,94.0625
2294.74,94.0625
2278.95,93.125
2263.16,91.5625
2247.37,89.375
2231.58,87.8125
2215.79,87.8125
2200.0,88.75
2184.21,89.375
2168.42,88.4375
2152.63,85.9375
2136.84,81.25
2121.05,77.5
2105.26,76.5625
2089.47,76.875
2073.68,80.625
2057.89,85.0
2042.11,88.4375
2026.32,90.3125
2010.53,91.25
1994.74,90.9375
1978.95,90.625
1963.16,89.375
1947.37,88.125
1931.58,84.6875
1915.79,76.875
1900.0,62.1875
1884.21,38.125
1868.42,37.8125
1852.63,33.75
1836.84,34.375
1821.05,40.9375
1805.26,29.0625
1789.47,35.9375
1773.68,32.5
1757.89,31.25
1742.11,17.1875
1726.32,36.875
1710.53,51.875
1694.74,49.375
1678.95,42.8125
1663.16,40.3125
1647.37,50.3125
1631.58,47.8125
1615.79,56.25
1600.0,46.875
1584.21,50.9375
1568.42,50.9375
1552.63,46.5625
1536.84,44.375
1521.05,52.1875
1505.26,49.375
1489.47,35.625
1473.68,39.375
1457.89,44.375
1442.11,35.9375
1426.32,30.3125
1410.53,34.6875
1394.74,37.5
1378.95,38.4375
1363.16,35.3125
1347.37,11.875
1331.58,27.1875
1315.79,42.1875
1300.0,19.375
1284.21,17.8125
1268.42,32.8125
1252.63,47.1875
1236.84,62.8125
1221.05,42.8125
1205.26,33.125
1189.47,55.625
1173.68,65.0
1157.89,57.5
1142.11,54.0625
1126.32,68.4375
1110.53,51.5625
1094.74,35.625
1078.95,24.375
1063.16,41.25
1047.37,37.8125
1031.58,25.3125
1015.79,55.0
1000.0,68.75
984.211,79.0625
968.421,76.5625
952.632,67.5
936.842,85.625
921.053,83.75
905.263,48.75
889.474,66.25
873.684,81.875
857.895,77.1875
842.105,62.5
826.316,70.9375
810.526,54.0625
794.737,64.6875
778.947,70.3125
763.158,66.25
747.368,59.6875
731.579,44.6875
715.789,53.4375
700,51.5625
684.211,49.0625
668.421,44.0625
652.632,39.6875
636.842,37.8125
621.053,37.5
605.263,38.75
589.474,43.4375
573.684,48.4375
557.895,47.1875
542.105,37.8125
526.316,45.9375
510.526,47.8125
494.737,51.5625
478.947,58.125
463.158,62.5
447.368,62.1875
431.579,59.6875
415.789,60.625
400.0,64.6875