File: data/public/sdbs/processed/samples/2,3-epoxy-1,1,4,12-tetramethylperhydro-7,8a-ethanobenz(f)azulene-4,9,10,10a,12-pentol.csv
Wavenumber,Intensity
4000.0,0.0
3984.21,85.625
3968.42,85.3125
3952.63,86.5625
3936.84,84.6875
3921.05,85.0
3905.26,85.625
3889.47,85.9375
3873.68,86.25
3857.89,86.875
3842.11,86.875
3826.32,86.875
3810.53,87.8125
3794.74,86.875
3778.95,86.5625
3763.16,88.4375
3747.37,86.875
3731.58,85.0
3715.79,80.3125
3700.0,68.4375
3684.21,36.25
3668.42,10.0
3652.63,5.625
3636.84,19.375
3621.05,11.875
3605.26,10.3125
3589.47,21.5625
3573.68,29.375
3557.89,37.8125
3542.11,47.5
3526.32,55.3125
3510.53,60.3125
3494.74,63.75
3478.95,65.9375
3463.16,68.4375
3447.37,69.6875
3431.58,70.9375
3415.79,73.125
3400.0,75.3125
3384.21,76.875
3368.42,79.0625
3352.63,74.6875
3336.84,80.0
3321.05,70.625
3305.26,60.9375
3289.47,12.1875
3273.68,4.6875
3257.89,6.25
3242.11,8.75
3226.32,24.375
3210.53,25.9375
3194.74,42.8125
3178.95,75.0
3163.16,81.875
3147.37,84.6875
3131.58,85.3125
3115.79,84.6875
3100.0,84.375
3084.21,85.0
3068.42,85.0
3052.63,85.9375
3036.84,86.5625
3021.05,87.8125
3005.26,88.75
2989.47,90.0
2973.68,90.0
2957.89,89.6875
2942.11,89.6875
2926.32,89.6875
2910.53,89.6875
2894.74,89.6875
2878.95,90.3125
2863.16,90.9375
2847.37,90.625
2831.58,90.625
2815.79,91.25
2800.0,91.5625
2784.21,91.5625
2768.42,91.5625
2752.63,91.875
2736.84,92.1875
2721.05,92.1875
2705.26,92.1875
2689.47,92.1875
2673.68,92.1875
2657.89,92.1875
2642.11,92.5
2626.32,92.8125
2610.53,92.8125
2594.74,92.8125
2578.95,92.8125
2563.16,93.125
2547.37,93.125
2531.58,93.125
2515.79,93.4375
2500.0,93.4375
2484.21,93.4375
2468.42,93.4375
2452.63,93.4375
2436.84,93.75
2421.05,94.0625
2405.26,94.0625
2389.47,94.0625
2373.68,94.0625
2357.89,94.0625
2342.11,94.0625
2326.32,94.375
2310.53,94.375
2294.74,94.0625
2278.95,94.375
2263.16,94.6875
2247.37,94.6875
2231.58,94.6875
2215.79,94.375
2200.0,94.0625
2184.21,94.0625
2168.42,93.75
2152.63,93.75
2136.84,93.75
2121.05,93.75
2105.26,93.4375
2089.47,93.4375
2073.68,93.75
2057.89,93.4375
2042.11,93.4375
2026.32,93.4375
2010.53,93.4375
1994.74,93.4375
1978.95,93.125
1963.16,92.8125
1947.37,92.8125
1931.58,92.5
1915.79,90.0
1900.0,84.375
1884.21,59.6875
1868.42,46.25
1852.63,37.1875
1836.84,48.75
1821.05,63.4375
1805.26,68.125
1789.47,68.125
1773.68,60.9375
1757.89,32.1875
1742.11,18.75
1726.32,31.25
1710.53,34.375
1694.74,38.4375
1678.95,43.75
1663.16,32.1875
1647.37,41.5625
1631.58,48.75
1615.79,60.0
1600.0,51.5625
1584.21,46.5625
1568.42,67.1875
1552.63,54.6875
1536.84,37.8125
1521.05,52.5
1505.26,39.6875
1489.47,55.3125
1473.68,21.25
1457.89,65.625
1442.11,60.625
1426.32,29.6875
1410.53,57.1875
1394.74,18.4375
1378.95,24.375
1363.16,44.375
1347.37,53.75
1331.58,42.1875
1315.79,28.125
1300.0,59.375
1284.21,26.5625
1268.42,34.0625
1252.63,27.5
1236.84,24.6875
1221.05,71.25
1205.26,31.5625
1189.47,56.875
1173.68,55.0
1157.89,56.875
1142.11,71.875
1126.32,65.0
1110.53,32.1875
1094.74,39.6875
1078.95,43.75
1063.16,64.0625
1047.37,71.875
1031.58,26.875
1015.79,75.625
1000.0,48.4375
984.211,48.125
968.421,56.5625
952.632,60.0
936.842,86.25
921.053,91.875
905.263,79.0625
889.474,25.3125
873.684,83.125
857.895,41.25
842.105,86.875
826.316,90.625
810.526,94.0625
794.737,91.875
778.947,86.875
763.158,78.125
747.368,55.9375
731.579,47.8125
715.789,77.8125
700,66.25
684.211,56.875
668.421,55.3125
652.632,55.0
636.842,54.6875
621.053,55.3125
605.263,58.4375
589.474,64.375
573.684,55.0
557.895,42.8125
542.105,46.25
526.316,50.0
510.526,57.1875
494.737,61.5625
478.947,62.8125
463.158,60.9375
447.368,59.0625
431.579,56.875
415.789,57.1875
400.0,59.0625