File: data/public/sdbs/processed/samples/2,4-dimethyltetrahydrothiophene 1,1-dioxide.csv
Wavenumber,Intensity
4000.0,0.0
3984.21,93.75
3968.42,93.4375
3952.63,93.4375
3936.84,93.75
3921.05,93.75
3905.26,93.4375
3889.47,93.4375
3873.68,93.125
3857.89,93.4375
3842.11,93.4375
3826.32,93.4375
3810.53,93.125
3794.74,93.4375
3778.95,90.9375
3763.16,87.1875
3747.37,80.9375
3731.58,76.875
3715.79,78.125
3700.0,81.5625
3684.21,80.625
3668.42,81.5625
3652.63,85.3125
3636.84,87.5
3621.05,88.75
3605.26,89.375
3589.47,90.0
3573.68,90.3125
3557.89,90.9375
3542.11,91.25
3526.32,91.5625
3510.53,91.5625
3494.74,91.5625
3478.95,91.25
3463.16,90.9375
3447.37,90.9375
3431.58,90.9375
3415.79,91.25
3400.0,90.9375
3384.21,90.625
3368.42,90.0
3352.63,88.75
3336.84,87.1875
3321.05,82.8125
3305.26,67.8125
3289.47,36.5625
3273.68,37.1875
3257.89,34.6875
3242.11,54.6875
3226.32,59.0625
3210.53,62.1875
3194.74,81.5625
3178.95,88.4375
3163.16,91.25
3147.37,92.1875
3131.58,90.9375
3115.79,91.5625
3100.0,92.8125
3084.21,93.125
3068.42,93.125
3052.63,93.125
3036.84,93.125
3021.05,93.4375
3005.26,93.75
2989.47,93.75
2973.68,93.75
2957.89,93.75
2942.11,93.4375
2926.32,92.8125
2910.53,91.875
2894.74,91.5625
2878.95,92.1875
2863.16,92.5
2847.37,92.8125
2831.58,93.125
2815.79,93.4375
2800.0,92.8125
2784.21,92.1875
2768.42,92.5
2752.63,93.4375
2736.84,94.375
2721.05,94.375
2705.26,94.375
2689.47,94.375
2673.68,94.375
2657.89,94.375
2642.11,94.6875
2626.32,94.6875
2610.53,94.0625
2594.74,94.0625
2578.95,94.375
2563.16,94.375
2547.37,94.375
2531.58,94.6875
2515.79,94.6875
2500.0,94.375
2484.21,94.375
2468.42,94.375
2452.63,94.375
2436.84,94.375
2421.05,94.375
2405.26,94.6875
2389.47,94.6875
2373.68,95.0
2357.89,94.6875
2342.11,94.6875
2326.32,94.375
2310.53,94.0625
2294.74,94.0625
2278.95,93.75
2263.16,93.4375
2247.37,92.8125
2231.58,92.1875
2215.79,92.1875
2200.0,92.1875
2184.21,91.875
2168.42,91.5625
2152.63,90.9375
2136.84,89.6875
2121.05,87.1875
2105.26,86.25
2089.47,87.5
2073.68,89.6875
2057.89,91.5625
2042.11,93.125
2026.32,93.75
2010.53,94.375
1994.74,94.0625
1978.95,93.125
1963.16,93.125
1947.37,93.125
1931.58,91.5625
1915.79,90.625
1900.0,88.4375
1884.21,78.4375
1868.42,43.125
1852.63,35.9375
1836.84,63.125
1821.05,78.75
1805.26,62.8125
1789.47,72.8125
1773.68,84.0625
1757.89,67.5
1742.11,78.4375
1726.32,82.5
1710.53,73.125
1694.74,62.1875
1678.95,47.8125
1663.16,14.0625
1647.37,4.6875
1631.58,11.875
1615.79,31.5625
1600.0,31.25
1584.21,15.0
1568.42,43.75
1552.63,56.25
1536.84,40.9375
1521.05,61.5625
1505.26,75.625
1489.47,79.375
1473.68,78.4375
1457.89,66.25
1442.11,66.5625
1426.32,38.125
1410.53,7.8125
1394.74,10.3125
1378.95,15.0
1363.16,46.25
1347.37,56.875
1331.58,61.5625
1315.79,75.3125
1300.0,76.875
1284.21,84.6875
1268.42,78.125
1252.63,61.25
1236.84,85.3125
1221.05,86.875
1205.26,90.625
1189.47,92.1875
1173.68,92.5
1157.89,90.625
1142.11,84.6875
1126.32,75.625
1110.53,86.5625
1094.74,90.0
1078.95,85.0
1063.16,87.5
1047.37,85.9375
1031.58,80.3125
1015.79,72.1875
1000.0,81.25
984.211,87.1875
968.421,88.4375
952.632,85.9375
936.842,76.5625
921.053,43.4375
905.263,32.5
889.474,76.25
873.684,89.6875
857.895,92.8125
842.105,94.375
826.316,94.375
810.526,93.75
794.737,92.8125
778.947,90.9375
763.158,88.4375
747.368,67.5
731.579,46.5625
715.789,80.9375
700,87.1875
684.211,87.1875
668.421,85.9375
652.632,82.8125
636.842,79.6875
621.053,48.75
605.263,41.5625
589.474,81.875
573.684,78.4375
557.895,58.4375
542.105,53.125
526.316,61.875
510.526,69.375
494.737,76.25
478.947,69.375
463.158,62.1875
447.368,61.875
431.579,64.375
415.789,63.125
400.0,61.875