File: data/public/sdbs/processed/samples/2-mercaptopyridine N-oxide.csv
Wavenumber,Intensity
4000.0,0.0
3984.21,73.125
3968.42,73.125
3952.63,73.75
3936.84,74.0625
3921.05,70.9375
3905.26,71.5625
3889.47,70.9375
3873.68,70.625
3857.89,69.375
3842.11,68.75
3826.32,70.3125
3810.53,69.375
3794.74,69.0625
3778.95,69.0625
3763.16,67.5
3747.37,67.8125
3731.58,68.125
3715.79,67.5
3700.0,67.1875
3684.21,66.875
3668.42,66.25
3652.63,66.25
3636.84,65.9375
3621.05,65.9375
3605.26,65.0
3589.47,64.0625
3573.68,64.0625
3557.89,64.0625
3542.11,64.0625
3526.32,64.0625
3510.53,63.75
3494.74,63.4375
3478.95,63.4375
3463.16,63.75
3447.37,63.4375
3431.58,62.8125
3415.79,62.5
3400.0,63.4375
3384.21,58.125
3368.42,42.1875
3352.63,46.875
3336.84,40.625
3321.05,41.875
3305.26,39.0625
3289.47,22.8125
3273.68,9.375
3257.89,4.6875
3242.11,9.0625
3226.32,23.125
3210.53,16.5625
3194.74,29.375
3178.95,68.4375
3163.16,72.5
3147.37,74.375
3131.58,73.75
3115.79,72.5
3100.0,72.8125
3084.21,72.5
3068.42,72.5
3052.63,73.4375
3036.84,74.0625
3021.05,75.0
3005.26,75.3125
2989.47,76.25
2973.68,76.5625
2957.89,76.25
2942.11,74.0625
2926.32,72.8125
2910.53,76.875
2894.74,77.1875
2878.95,76.875
2863.16,77.1875
2847.37,77.1875
2831.58,77.1875
2815.79,78.125
2800.0,79.375
2784.21,79.0625
2768.42,79.375
2752.63,80.9375
2736.84,80.9375
2721.05,80.625
2705.26,82.1875
2689.47,82.1875
2673.68,80.9375
2657.89,80.625
2642.11,82.5
2626.32,83.4375
2610.53,83.125
2594.74,82.1875
2578.95,80.3125
2563.16,80.3125
2547.37,84.0625
2531.58,83.75
2515.79,82.5
2500.0,82.8125
2484.21,84.6875
2468.42,84.6875
2452.63,84.6875
2436.84,85.0
2421.05,85.0
2405.26,84.6875
2389.47,85.0
2373.68,86.5625
2357.89,86.875
2342.11,84.375
2326.32,84.375
2310.53,85.3125
2294.74,86.5625
2278.95,87.1875
2263.16,87.5
2247.37,87.5
2231.58,86.25
2215.79,86.5625
2200.0,87.1875
2184.21,88.125
2168.42,88.75
2152.63,88.4375
2136.84,88.75
2121.05,88.4375
2105.26,85.625
2089.47,84.375
2073.68,87.8125
2057.89,89.6875
2042.11,77.5
2026.32,84.0625
2010.53,85.0
1994.74,69.6875
1978.95,77.1875
1963.16,83.75
1947.37,85.0
1931.58,88.75
1915.79,89.6875
1900.0,86.5625
1884.21,55.0
1868.42,9.0625
1852.63,25.0
1836.84,50.3125
1821.05,65.3125
1805.26,13.4375
1789.47,43.4375
1773.68,58.125
1757.89,57.1875
1742.11,55.3125
1726.32,71.875
1710.53,79.375
1694.74,82.1875
1678.95,85.625
1663.16,86.25
1647.37,86.5625
1631.58,87.5
1615.79,86.25
1600.0,38.125
1584.21,40.625
1568.42,17.5
1552.63,50.0
1536.84,22.1875
1521.05,45.3125
1505.26,49.0625
1489.47,72.8125
1473.68,78.4375
1457.89,79.375
1442.11,72.5
1426.32,69.6875
1410.53,50.0
1394.74,67.8125
1378.95,69.375
1363.16,81.5625
1347.37,45.9375
1331.58,55.3125
1315.79,82.1875
1300.0,85.0
1284.21,64.6875
1268.42,78.4375
1252.63,87.5
1236.84,88.125
1221.05,87.5
1205.26,84.375
1189.47,89.375
1173.68,90.0
1157.89,90.0
1142.11,84.0625
1126.32,90.625
1110.53,91.25
1094.74,91.875
1078.95,91.875
1063.16,92.1875
1047.37,90.625
1031.58,84.375
1015.79,86.5625
1000.0,28.125
984.211,79.375
968.421,87.1875
952.632,89.0625
936.842,90.3125
921.053,80.625
905.263,26.25
889.474,30.625
873.684,75.625
857.895,83.75
842.105,79.375
826.316,85.625
810.526,38.75
794.737,86.875
778.947,91.5625
763.158,92.8125
747.368,92.5
731.579,92.8125
715.789,91.875
700,92.1875
684.211,92.8125
668.421,94.6875
652.632,90.3125
636.842,50.3125
621.053,88.4375
605.263,90.9375
589.474,79.6875
573.684,36.875
557.895,89.0625
542.105,92.1875
526.316,91.875
510.526,92.5
494.737,90.9375
478.947,86.875
463.158,85.9375
447.368,82.5
431.579,75.3125
415.789,73.75
400.0,75.625