File: data/public/sdbs/processed/samples/4,5-bis(isopropoxycarbonyl)-3-methyl-1-(1-naphthyl)-1H-1,2,3-triazolium perchlorate.csv
Wavenumber,Intensity
4000.0,0.0
3984.21,87.8125
3968.42,87.8125
3952.63,88.125
3936.84,87.8125
3921.05,87.5
3905.26,87.5
3889.47,88.125
3873.68,87.5
3857.89,87.5
3842.11,88.125
3826.32,88.125
3810.53,88.125
3794.74,87.5
3778.95,88.125
3763.16,87.5
3747.37,86.875
3731.58,86.25
3715.79,86.5625
3700.0,86.25
3684.21,85.9375
3668.42,84.6875
3652.63,84.0625
3636.84,83.4375
3621.05,84.375
3605.26,84.6875
3589.47,84.375
3573.68,84.6875
3557.89,84.6875
3542.11,85.0
3526.32,85.625
3510.53,85.625
3494.74,85.625
3478.95,85.3125
3463.16,84.6875
3447.37,84.375
3431.58,84.375
3415.79,84.375
3400.0,83.75
3384.21,83.125
3368.42,82.1875
3352.63,79.0625
3336.84,78.75
3321.05,74.6875
3305.26,58.75
3289.47,27.5
3273.68,10.625
3257.89,5.3125
3242.11,8.125
3226.32,18.125
3210.53,14.375
3194.74,20.625
3178.95,64.6875
3163.16,77.1875
3147.37,83.4375
3131.58,84.6875
3115.79,83.4375
3100.0,84.375
3084.21,84.375
3068.42,85.0
3052.63,85.9375
3036.84,86.875
3021.05,87.5
3005.26,88.75
2989.47,90.0
2973.68,90.625
2957.89,91.25
2942.11,91.5625
2926.32,91.5625
2910.53,91.5625
2894.74,91.5625
2878.95,91.5625
2863.16,91.5625
2847.37,91.5625
2831.58,91.5625
2815.79,91.875
2800.0,92.5
2784.21,92.1875
2768.42,92.1875
2752.63,93.125
2736.84,93.4375
2721.05,93.4375
2705.26,93.4375
2689.47,93.4375
2673.68,93.75
2657.89,93.75
2642.11,92.8125
2626.32,92.8125
2610.53,93.4375
2594.74,93.75
2578.95,93.75
2563.16,93.75
2547.37,93.75
2531.58,94.375
2515.79,94.375
2500.0,94.375
2484.21,94.375
2468.42,94.6875
2452.63,95.0
2436.84,94.375
2421.05,93.75
2405.26,93.4375
2389.47,93.75
2373.68,93.75
2357.89,93.4375
2342.11,93.4375
2326.32,92.8125
2310.53,91.5625
2294.74,85.0
2278.95,46.875
2263.16,33.125
2247.37,38.125
2231.58,78.4375
2215.79,85.9375
2200.0,87.5
2184.21,89.375
2168.42,90.625
2152.63,90.625
2136.84,90.625
2121.05,90.3125
2105.26,90.3125
2089.47,90.9375
2073.68,91.875
2057.89,80.3125
2042.11,77.8125
2026.32,86.25
2010.53,90.3125
1994.74,90.625
1978.95,90.625
1963.16,90.625
1947.37,89.6875
1931.58,81.5625
1915.79,86.875
1900.0,80.3125
1884.21,51.875
1868.42,28.75
1852.63,31.875
1836.84,48.4375
1821.05,66.5625
1805.26,76.875
1789.47,76.5625
1773.68,75.0
1757.89,48.75
1742.11,42.1875
1726.32,65.3125
1710.53,72.8125
1694.74,77.1875
1678.95,79.6875
1663.16,67.8125
1647.37,74.375
1631.58,75.9375
1615.79,57.5
1600.0,33.75
1584.21,40.625
1568.42,41.875
1552.63,71.875
1536.84,80.9375
1521.05,71.875
1505.26,80.3125
1489.47,81.5625
1473.68,76.5625
1457.89,66.875
1442.11,65.9375
1426.32,56.875
1410.53,63.4375
1394.74,35.0
1378.95,30.3125
1363.16,20.625
1347.37,20.3125
1331.58,25.9375
1315.79,41.5625
1300.0,62.5
1284.21,77.1875
1268.42,80.9375
1252.63,83.4375
1236.84,85.3125
1221.05,87.5
1205.26,86.875
1189.47,84.375
1173.68,88.125
1157.89,88.75
1142.11,88.75
1126.32,88.125
1110.53,86.875
1094.74,75.0
1078.95,85.9375
1063.16,87.5
1047.37,75.625
1031.58,84.375
1015.79,79.375
1000.0,90.9375
984.211,78.4375
968.421,70.625
952.632,85.625
936.842,77.5
921.053,72.1875
905.263,69.375
889.474,89.0625
873.684,89.6875
857.895,86.25
842.105,73.4375
826.316,84.6875
810.526,92.8125
794.737,94.375
778.947,94.0625
763.158,91.875
747.368,80.3125
731.579,91.5625
715.789,84.6875
700,54.6875
684.211,90.9375
668.421,90.9375
652.632,90.0
636.842,90.3125
621.053,91.5625
605.263,91.875
589.474,91.5625
573.684,91.875
557.895,90.625
542.105,88.4375
526.316,85.0
510.526,82.8125
494.737,85.0
478.947,89.0625
463.158,88.125
447.368,85.625
431.579,76.875
415.789,65.625
400.0,59.375