File: data/public/sdbs/processed/samples/4-ethoxycarbonyl-3-methyl-1-(1-naphthyl)-1H-1,2,3-triazolium p-toluenesulfonate.csv
Wavenumber,Intensity
4000.0,0.0
3984.21,85.3125
3968.42,85.625
3952.63,85.625
3936.84,85.625
3921.05,85.625
3905.26,85.625
3889.47,85.9375
3873.68,85.625
3857.89,85.625
3842.11,85.9375
3826.32,85.9375
3810.53,86.25
3794.74,85.9375
3778.95,85.9375
3763.16,85.625
3747.37,85.625
3731.58,85.9375
3715.79,85.9375
3700.0,86.25
3684.21,86.5625
3668.42,85.9375
3652.63,85.625
3636.84,85.625
3621.05,85.9375
3605.26,85.9375
3589.47,85.9375
3573.68,85.9375
3557.89,85.9375
3542.11,85.9375
3526.32,85.9375
3510.53,85.9375
3494.74,86.25
3478.95,86.25
3463.16,85.9375
3447.37,85.625
3431.58,85.625
3415.79,84.6875
3400.0,82.1875
3384.21,82.1875
3368.42,77.1875
3352.63,69.375
3336.84,71.875
3321.05,69.6875
3305.26,65.9375
3289.47,38.125
3273.68,13.75
3257.89,5.3125
3242.11,9.6875
3226.32,25.9375
3210.53,19.375
3194.74,30.0
3178.95,75.625
3163.16,83.125
3147.37,86.875
3131.58,88.125
3115.79,87.1875
3100.0,87.8125
3084.21,87.5
3068.42,88.125
3052.63,89.0625
3036.84,89.375
3021.05,89.6875
3005.26,90.625
2989.47,91.5625
2973.68,91.875
2957.89,91.875
2942.11,92.1875
2926.32,92.5
2910.53,92.1875
2894.74,92.1875
2878.95,92.5
2863.16,92.8125
2847.37,92.8125
2831.58,92.8125
2815.79,93.125
2800.0,93.125
2784.21,93.125
2768.42,93.125
2752.63,93.75
2736.84,93.75
2721.05,93.75
2705.26,94.0625
2689.47,94.0625
2673.68,94.375
2657.89,94.0625
2642.11,94.0625
2626.32,94.0625
2610.53,94.0625
2594.74,94.0625
2578.95,94.0625
2563.16,94.0625
2547.37,94.0625
2531.58,94.0625
2515.79,94.0625
2500.0,94.0625
2484.21,94.0625
2468.42,94.375
2452.63,94.6875
2436.84,94.6875
2421.05,94.375
2405.26,94.375
2389.47,94.375
2373.68,94.375
2357.89,94.375
2342.11,94.375
2326.32,94.6875
2310.53,95.0
2294.74,94.0625
2278.95,88.125
2263.16,47.1875
2247.37,76.5625
2231.58,88.125
2215.79,90.9375
2200.0,91.875
2184.21,92.8125
2168.42,92.8125
2152.63,92.8125
2136.84,92.8125
2121.05,92.8125
2105.26,93.125
2089.47,93.4375
2073.68,93.4375
2057.89,90.0
2042.11,92.5
2026.32,93.125
2010.53,93.125
1994.74,93.125
1978.95,93.125
1963.16,92.8125
1947.37,90.3125
1931.58,89.375
1915.79,89.375
1900.0,87.5
1884.21,67.8125
1868.42,46.875
1852.63,50.0
1836.84,67.1875
1821.05,83.125
1805.26,88.125
1789.47,81.5625
1773.68,80.625
1757.89,68.125
1742.11,65.625
1726.32,80.625
1710.53,86.5625
1694.74,87.1875
1678.95,89.375
1663.16,86.5625
1647.37,71.25
1631.58,74.375
1615.79,83.75
1600.0,70.3125
1584.21,69.6875
1568.42,79.375
1552.63,84.0625
1536.84,70.0
1521.05,37.8125
1505.26,33.125
1489.47,74.6875
1473.68,75.0
1457.89,75.0
1442.11,75.0
1426.32,71.875
1410.53,77.5
1394.74,67.5
1378.95,84.0625
1363.16,82.5
1347.37,88.4375
1331.58,90.0
1315.79,90.9375
1300.0,91.5625
1284.21,89.375
1268.42,56.875
1252.63,84.0625
1236.84,63.75
1221.05,90.625
1205.26,92.8125
1189.47,88.4375
1173.68,91.5625
1157.89,91.5625
1142.11,91.875
1126.32,91.5625
1110.53,90.3125
1094.74,89.6875
1078.95,90.625
1063.16,91.5625
1047.37,91.25
1031.58,89.375
1015.79,88.75
1000.0,93.4375
984.211,91.25
968.421,85.9375
952.632,70.9375
936.842,81.25
921.053,87.5
905.263,67.1875
889.474,89.0625
873.684,91.875
857.895,90.3125
842.105,85.625
826.316,87.1875
810.526,94.375
794.737,89.375
778.947,58.125
763.158,91.25
747.368,89.375
731.579,92.8125
715.789,92.8125
700,93.125
684.211,93.4375
668.421,92.5
652.632,90.625
636.842,82.5
621.053,62.5
605.263,85.9375
589.474,90.625
573.684,94.0625
557.895,92.8125
542.105,91.5625
526.316,90.3125
510.526,89.0625
494.737,89.375
478.947,90.0
463.158,88.4375
447.368,81.875
431.579,75.3125
415.789,72.5
400.0,72.1875