File: data/public/sdbs/processed/samples/4-ethoxycarbonyl-3-methyl-1-(1-naphthyl)-1H-1,2,3-triazolium bromide.csv
Wavenumber,Intensity
4000.0,0.0
3984.21,83.75
3968.42,83.75
3952.63,84.375
3936.84,84.375
3921.05,84.375
3905.26,84.375
3889.47,85.0
3873.68,84.6875
3857.89,85.0
3842.11,85.625
3826.32,85.625
3810.53,85.3125
3794.74,85.625
3778.95,85.9375
3763.16,85.625
3747.37,85.0
3731.58,85.3125
3715.79,85.9375
3700.0,85.9375
3684.21,85.9375
3668.42,85.625
3652.63,85.0
3636.84,84.6875
3621.05,84.375
3605.26,84.6875
3589.47,85.0
3573.68,84.6875
3557.89,84.6875
3542.11,84.6875
3526.32,84.6875
3510.53,84.375
3494.74,84.6875
3478.95,85.625
3463.16,85.3125
3447.37,85.0
3431.58,85.625
3415.79,85.9375
3400.0,85.625
3384.21,85.0
3368.42,85.3125
3352.63,80.9375
3336.84,71.5625
3321.05,67.1875
3305.26,57.5
3289.47,35.0
3273.68,12.5
3257.89,5.0
3242.11,11.5625
3226.32,30.3125
3210.53,25.3125
3194.74,38.4375
3178.95,78.125
3163.16,83.4375
3147.37,86.875
3131.58,87.1875
3115.79,87.5
3100.0,88.125
3084.21,88.4375
3068.42,88.75
3052.63,89.6875
3036.84,89.6875
3021.05,90.3125
3005.26,90.625
2989.47,91.5625
2973.68,91.5625
2957.89,91.875
2942.11,91.875
2926.32,92.1875
2910.53,91.875
2894.74,91.5625
2878.95,92.1875
2863.16,92.1875
2847.37,92.5
2831.58,92.5
2815.79,93.125
2800.0,93.4375
2784.21,93.4375
2768.42,93.75
2752.63,94.375
2736.84,94.0625
2721.05,94.375
2705.26,94.6875
2689.47,94.375
2673.68,94.6875
2657.89,94.6875
2642.11,94.6875
2626.32,94.6875
2610.53,94.6875
2594.74,95.0
2578.95,94.6875
2563.16,94.0625
2547.37,93.75
2531.58,94.0625
2515.79,94.6875
2500.0,94.6875
2484.21,94.375
2468.42,94.375
2452.63,94.6875
2436.84,94.375
2421.05,92.8125
2405.26,92.1875
2389.47,92.8125
2373.68,93.75
2357.89,94.0625
2342.11,94.0625
2326.32,94.375
2310.53,94.375
2294.74,94.0625
2278.95,88.4375
2263.16,59.0625
2247.37,35.0
2231.58,58.125
2215.79,75.625
2200.0,83.75
2184.21,86.5625
2168.42,89.375
2152.63,90.0
2136.84,90.625
2121.05,90.3125
2105.26,90.3125
2089.47,91.5625
2073.68,92.1875
2057.89,90.3125
2042.11,91.25
2026.32,92.1875
2010.53,90.3125
1994.74,91.25
1978.95,92.5
1963.16,92.5
1947.37,89.6875
1931.58,81.875
1915.79,90.625
1900.0,88.4375
1884.21,68.75
1868.42,48.4375
1852.63,55.3125
1836.84,62.5
1821.05,73.4375
1805.26,87.1875
1789.47,73.125
1773.68,75.0
1757.89,64.0625
1742.11,65.625
1726.32,77.1875
1710.53,81.875
1694.74,86.875
1678.95,87.1875
1663.16,77.8125
1647.37,55.625
1631.58,49.0625
1615.79,63.4375
1600.0,72.5
1584.21,56.5625
1568.42,53.125
1552.63,80.0
1536.84,77.5
1521.05,82.5
1505.26,89.0625
1489.47,86.5625
1473.68,85.9375
1457.89,82.8125
1442.11,74.6875
1426.32,51.5625
1410.53,70.625
1394.74,75.625
1378.95,80.9375
1363.16,86.5625
1347.37,89.0625
1331.58,84.375
1315.79,79.375
1300.0,86.875
1284.21,90.9375
1268.42,88.4375
1252.63,78.4375
1236.84,78.4375
1221.05,88.4375
1205.26,90.9375
1189.47,88.75
1173.68,92.8125
1157.89,85.625
1142.11,90.3125
1126.32,85.9375
1110.53,90.0
1094.74,91.875
1078.95,92.8125
1063.16,92.8125
1047.37,89.375
1031.58,86.25
1015.79,90.3125
1000.0,93.4375
984.211,91.5625
968.421,84.375
952.632,62.8125
936.842,83.125
921.053,85.3125
905.263,32.8125
889.474,85.9375
873.684,87.8125
857.895,90.9375
842.105,84.6875
826.316,90.625
810.526,93.125
794.737,89.375
778.947,94.0625
763.158,93.75
747.368,78.125
731.579,92.5
715.789,93.4375
700,93.75
684.211,94.0625
668.421,92.1875
652.632,90.3125
636.842,90.9375
621.053,92.8125
605.263,94.6875
589.474,94.0625
573.684,92.5
557.895,92.5
542.105,92.1875
526.316,90.625
510.526,90.625
494.737,90.625
478.947,90.3125
463.158,88.75
447.368,85.3125
431.579,81.875
415.789,79.375
400.0,78.125