File: data/public/sdbs/processed/samples/4-ethoxycarbonyl-3-methyl-1-(1-naphthyl)-1H-1,2,3-triazolium perchlorate.csv
Wavenumber,Intensity
4000.0,0.0
3984.21,77.5
3968.42,78.125
3952.63,78.125
3936.84,77.8125
3921.05,76.875
3905.26,77.1875
3889.47,77.8125
3873.68,77.1875
3857.89,77.5
3842.11,77.5
3826.32,77.1875
3810.53,77.1875
3794.74,77.1875
3778.95,77.1875
3763.16,76.875
3747.37,77.1875
3731.58,76.875
3715.79,76.875
3700.0,76.875
3684.21,76.875
3668.42,75.3125
3652.63,74.6875
3636.84,75.0
3621.05,75.0
3605.26,75.0
3589.47,75.0
3573.68,75.0
3557.89,75.3125
3542.11,75.9375
3526.32,75.9375
3510.53,75.9375
3494.74,75.625
3478.95,75.3125
3463.16,75.0
3447.37,74.375
3431.58,74.375
3415.79,72.1875
3400.0,64.6875
3384.21,62.8125
3368.42,47.1875
3352.63,60.9375
3336.84,65.0
3321.05,62.5
3305.26,49.375
3289.47,22.8125
3273.68,8.4375
3257.89,5.3125
3242.11,5.9375
3226.32,11.875
3210.53,10.0
3194.74,13.4375
3178.95,53.75
3163.16,65.625
3147.37,71.875
3131.58,73.125
3115.79,72.1875
3100.0,73.4375
3084.21,73.125
3068.42,73.75
3052.63,75.0
3036.84,75.625
3021.05,76.5625
3005.26,77.8125
2989.47,78.75
2973.68,80.0
2957.89,80.3125
2942.11,80.9375
2926.32,80.9375
2910.53,80.9375
2894.74,80.9375
2878.95,81.5625
2863.16,82.1875
2847.37,82.1875
2831.58,82.1875
2815.79,82.1875
2800.0,83.125
2784.21,82.8125
2768.42,83.125
2752.63,83.4375
2736.84,83.75
2721.05,84.0625
2705.26,84.6875
2689.47,85.0
2673.68,85.3125
2657.89,85.625
2642.11,84.375
2626.32,83.4375
2610.53,84.375
2594.74,85.0
2578.95,85.625
2563.16,85.625
2547.37,85.9375
2531.58,86.5625
2515.79,86.875
2500.0,86.875
2484.21,86.875
2468.42,86.875
2452.63,86.875
2436.84,86.875
2421.05,86.875
2405.26,86.25
2389.47,85.9375
2373.68,86.25
2357.89,86.875
2342.11,86.875
2326.32,86.5625
2310.53,84.6875
2294.74,77.1875
2278.95,31.25
2263.16,32.1875
2247.37,66.5625
2231.58,76.25
2215.79,79.375
2200.0,82.5
2184.21,85.0
2168.42,85.9375
2152.63,85.9375
2136.84,86.25
2121.05,86.5625
2105.26,86.875
2089.47,87.8125
2073.68,87.5
2057.89,81.875
2042.11,86.25
2026.32,86.875
2010.53,86.5625
1994.74,86.5625
1978.95,86.875
1963.16,86.5625
1947.37,83.125
1931.58,76.875
1915.79,83.75
1900.0,78.75
1884.21,51.25
1868.42,24.6875
1852.63,28.4375
1836.84,43.75
1821.05,65.9375
1805.26,77.8125
1789.47,77.1875
1773.68,58.125
1757.89,48.4375
1742.11,40.9375
1726.32,62.1875
1710.53,73.125
1694.74,72.5
1678.95,78.75
1663.16,72.1875
1647.37,45.9375
1631.58,54.0625
1615.79,56.5625
1600.0,47.5
1584.21,45
1568.42,60.0
1552.63,77.8125
1536.84,75.9375
1521.05,72.1875
1505.26,76.875
1489.47,78.4375
1473.68,63.125
1457.89,63.125
1442.11,46.5625
1426.32,43.75
1410.53,56.5625
1394.74,52.1875
1378.95,38.4375
1363.16,20.3125
1347.37,21.25
1331.58,31.25
1315.79,58.125
1300.0,67.8125
1284.21,78.125
1268.42,80.0
1252.63,65.625
1236.84,74.0625
1221.05,85.3125
1205.26,88.4375
1189.47,90.0
1173.68,91.5625
1157.89,81.5625
1142.11,91.875
1126.32,91.5625
1110.53,92.1875
1094.74,91.5625
1078.95,89.6875
1063.16,90.0
1047.37,79.0625
1031.58,88.4375
1015.79,87.1875
1000.0,93.75
984.211,92.8125
968.421,81.5625
952.632,45.3125
936.842,78.75
921.053,51.5625
905.263,57.5
889.474,89.0625
873.684,92.5
857.895,88.4375
842.105,76.5625
826.316,87.8125
810.526,93.75
794.737,91.25
778.947,87.1875
763.158,94.0625
747.368,72.1875
731.579,87.5
715.789,80.0
700,50.625
684.211,85.625
668.421,89.6875
652.632,83.75
636.842,85.0
621.053,86.25
605.263,87.8125
589.474,89.0625
573.684,88.125
557.895,85.9375
542.105,85.9375
526.316,84.6875
510.526,84.6875
494.737,86.25
478.947,86.25
463.158,87.1875
447.368,80.0
431.579,70.0
415.789,68.4375
400.0,70.9375