File: data/public/sdbs/processed/samples/5-chloro-2-quinolinecarbonitrile.csv
Wavenumber,Intensity
4000.0,0.0
3984.21,82.5
3968.42,82.8125
3952.63,82.8125
3936.84,82.1875
3921.05,82.8125
3905.26,82.8125
3889.47,82.8125
3873.68,82.5
3857.89,82.8125
3842.11,82.8125
3826.32,82.8125
3810.53,83.125
3794.74,83.125
3778.95,83.125
3763.16,83.125
3747.37,83.125
3731.58,82.8125
3715.79,83.125
3700.0,83.4375
3684.21,83.4375
3668.42,83.125
3652.63,83.125
3636.84,82.5
3621.05,82.5
3605.26,82.1875
3589.47,81.875
3573.68,81.5625
3557.89,81.5625
3542.11,81.25
3526.32,81.25
3510.53,80.625
3494.74,80.625
3478.95,80.0
3463.16,79.375
3447.37,78.75
3431.58,78.4375
3415.79,78.4375
3400.0,78.75
3384.21,79.375
3368.42,76.5625
3352.63,75.625
3336.84,73.75
3321.05,68.4375
3305.26,55.625
3289.47,19.6875
3273.68,5.9375
3257.89,4.6875
3242.11,5.625
3226.32,10.625
3210.53,8.4375
3194.74,13.125
3178.95,62.5
3163.16,75.0
3147.37,80.625
3131.58,81.875
3115.79,80.0
3100.0,81.25
3084.21,80.9375
3068.42,80.9375
3052.63,82.5
3036.84,83.125
3021.05,83.75
3005.26,85.0
2989.47,86.5625
2973.68,86.5625
2957.89,87.1875
2942.11,87.5
2926.32,87.8125
2910.53,87.5
2894.74,87.5
2878.95,87.5
2863.16,87.5
2847.37,87.8125
2831.58,87.8125
2815.79,88.125
2800.0,88.4375
2784.21,89.6875
2768.42,85.625
2752.63,88.125
2736.84,88.4375
2721.05,88.75
2705.26,89.0625
2689.47,89.375
2673.68,89.375
2657.89,89.6875
2642.11,89.6875
2626.32,90.0
2610.53,90.3125
2594.74,90.625
2578.95,90.625
2563.16,90.3125
2547.37,89.6875
2531.58,88.125
2515.79,90.3125
2500.0,90.9375
2484.21,90.9375
2468.42,90.3125
2452.63,90.3125
2436.84,90.625
2421.05,90.9375
2405.26,91.5625
2389.47,91.25
2373.68,90.0
2357.89,90.3125
2342.11,90.3125
2326.32,90.625
2310.53,90.9375
2294.74,91.5625
2278.95,91.875
2263.16,91.5625
2247.37,90.9375
2231.58,90.9375
2215.79,91.25
2200.0,91.5625
2184.21,91.875
2168.42,91.875
2152.63,89.6875
2136.84,91.5625
2121.05,91.875
2105.26,92.1875
2089.47,92.8125
2073.68,87.1875
2057.89,92.5
2042.11,93.125
2026.32,69.375
2010.53,83.4375
1994.74,69.375
1978.95,81.25
1963.16,85.9375
1947.37,87.5
1931.58,87.5
1915.79,77.1875
1900.0,68.125
1884.21,56.25
1868.42,28.125
1852.63,26.5625
1836.84,51.875
1821.05,74.375
1805.26,84.375
1789.47,86.25
1773.68,80.625
1757.89,57.1875
1742.11,49.375
1726.32,62.5
1710.53,77.1875
1694.74,80.0
1678.95,83.125
1663.16,84.6875
1647.37,85.625
1631.58,64.0625
1615.79,81.875
1600.0,83.75
1584.21,86.25
1568.42,87.1875
1552.63,86.5625
1536.84,83.4375
1521.05,73.125
1505.26,79.0625
1489.47,82.5
1473.68,80.0
1457.89,85.625
1442.11,83.4375
1426.32,85.9375
1410.53,85.3125
1394.74,79.375
1378.95,86.25
1363.16,88.125
1347.37,88.4375
1331.58,88.4375
1315.79,88.75
1300.0,87.5
1284.21,89.0625
1268.42,89.375
1252.63,90.0
1236.84,90.3125
1221.05,90.9375
1205.26,86.25
1189.47,87.8125
1173.68,54.375
1157.89,82.8125
1142.11,85.625
1126.32,87.1875
1110.53,74.0625
1094.74,85.625
1078.95,87.5
1063.16,88.4375
1047.37,89.6875
1031.58,89.6875
1015.79,87.8125
1000.0,69.0625
984.211,81.875
968.421,49.375
952.632,70.625
936.842,85.0
921.053,89.0625
905.263,89.0625
889.474,62.1875
873.684,85.3125
857.895,84.6875
842.105,77.5
826.316,86.875
810.526,92.1875
794.737,93.75
778.947,94.0625
763.158,94.0625
747.368,93.75
731.579,93.75
715.789,93.75
700,94.0625
684.211,94.0625
668.421,94.0625
652.632,94.0625
636.842,89.0625
621.053,91.875
605.263,94.0625
589.474,80.625
573.684,94.0625
557.895,85.9375
542.105,93.4375
526.316,94.0625
510.526,94.0625
494.737,93.75
478.947,93.4375
463.158,93.4375
447.368,90.625
431.579,84.375
415.789,80.9375
400.0,79.6875