File: data/public/sdbs/processed/samples/5-cholesten-3beta-yl nonyl carbonate.csv
Wavenumber,Intensity
4000.0,0.0
3984.21,94.0625
3968.42,93.125
3952.63,93.125
3936.84,93.4375
3921.05,92.8125
3905.26,92.5
3889.47,92.1875
3873.68,92.1875
3857.89,91.875
3842.11,91.5625
3826.32,91.5625
3810.53,91.5625
3794.74,91.5625
3778.95,91.5625
3763.16,91.5625
3747.37,91.25
3731.58,90.9375
3715.79,90.9375
3700.0,90.9375
3684.21,90.625
3668.42,90.3125
3652.63,90.0
3636.84,89.0625
3621.05,88.4375
3605.26,88.125
3589.47,87.8125
3573.68,87.1875
3557.89,87.1875
3542.11,86.25
3526.32,86.25
3510.53,85.625
3494.74,84.6875
3478.95,84.375
3463.16,84.0625
3447.37,84.0625
3431.58,84.6875
3415.79,85.9375
3400.0,86.5625
3384.21,88.4375
3368.42,89.6875
3352.63,89.6875
3336.84,87.8125
3321.05,85.625
3305.26,75.3125
3289.47,35.3125
3273.68,10.3125
3257.89,5.0
3242.11,9.0625
3226.32,20.625
3210.53,17.1875
3194.74,25.3125
3178.95,71.5625
3163.16,83.4375
3147.37,87.8125
3131.58,89.0625
3115.79,88.125
3100.0,88.75
3084.21,88.75
3068.42,89.0625
3052.63,89.375
3036.84,90.0
3021.05,90.625
3005.26,91.25
2989.47,92.1875
2973.68,92.5
2957.89,92.8125
2942.11,92.8125
2926.32,93.125
2910.53,92.8125
2894.74,92.5
2878.95,92.1875
2863.16,92.1875
2847.37,92.1875
2831.58,92.5
2815.79,92.8125
2800.0,92.8125
2784.21,92.5
2768.42,92.5
2752.63,92.8125
2736.84,92.8125
2721.05,93.125
2705.26,93.125
2689.47,93.125
2673.68,93.125
2657.89,93.125
2642.11,93.125
2626.32,93.125
2610.53,93.4375
2594.74,93.4375
2578.95,93.4375
2563.16,93.75
2547.37,93.75
2531.58,94.0625
2515.79,94.0625
2500.0,94.0625
2484.21,94.0625
2468.42,94.0625
2452.63,94.0625
2436.84,94.0625
2421.05,93.75
2405.26,93.75
2389.47,93.4375
2373.68,93.4375
2357.89,93.125
2342.11,93.125
2326.32,92.8125
2310.53,92.5
2294.74,90.9375
2278.95,85.625
2263.16,55.3125
2247.37,46.5625
2231.58,73.4375
2215.79,86.5625
2200.0,89.6875
2184.21,90.0
2168.42,90.625
2152.63,90.9375
2136.84,91.5625
2121.05,91.875
2105.26,92.1875
2089.47,92.8125
2073.68,93.4375
2057.89,93.125
2042.11,93.125
2026.32,92.8125
2010.53,92.8125
1994.74,92.5
1978.95,92.5
1963.16,92.1875
1947.37,92.5
1931.58,92.1875
1915.79,90.3125
1900.0,85.625
1884.21,64.6875
1868.42,40.9375
1852.63,46.875
1836.84,61.875
1821.05,78.4375
1805.26,87.8125
1789.47,87.1875
1773.68,84.0625
1757.89,66.875
1742.11,60.0
1726.32,72.1875
1710.53,81.25
1694.74,84.375
1678.95,84.6875
1663.16,81.25
1647.37,82.8125
1631.58,78.75
1615.79,70.0
1600.0,59.0625
1584.21,57.1875
1568.42,58.4375
1552.63,78.4375
1536.84,86.25
1521.05,89.375
1505.26,88.4375
1489.47,89.6875
1473.68,90.625
1457.89,90.3125
1442.11,90.3125
1426.32,90.3125
1410.53,88.4375
1394.74,90.625
1378.95,89.6875
1363.16,90.9375
1347.37,90.9375
1331.58,90.9375
1315.79,90.9375
1300.0,91.25
1284.21,90.625
1268.42,86.25
1252.63,86.25
1236.84,86.25
1221.05,85.625
1205.26,88.125
1189.47,83.75
1173.68,84.0625
1157.89,81.25
1142.11,84.6875
1126.32,89.0625
1110.53,90.3125
1094.74,90.0
1078.95,89.6875
1063.16,90.3125
1047.37,91.25
1031.58,90.9375
1015.79,90.625
1000.0,90.9375
984.211,91.5625
968.421,91.875
952.632,87.5
936.842,80.9375
921.053,90.9375
905.263,91.875
889.474,90.9375
873.684,89.375
857.895,87.1875
842.105,80.0
826.316,88.75
810.526,92.5
794.737,93.75
778.947,93.75
763.158,93.125
747.368,93.125
731.579,93.125
715.789,92.8125
700,93.125
684.211,91.25
668.421,91.875
652.632,90.625
636.842,90.3125
621.053,90.3125
605.263,91.25
589.474,91.875
573.684,91.25
557.895,90.625
542.105,89.375
526.316,86.875
510.526,85.625
494.737,85.625
478.947,84.375
463.158,83.4375
447.368,83.75
431.579,80.9375
415.789,69.375
400.0,61.5625