File: data/public/sdbs/processed/samples/5-cholesten-3beta-yl heptyl carbonate.csv
Wavenumber,Intensity
4000.0,0.0
3984.21,94.6875
3968.42,93.75
3952.63,93.75
3936.84,93.75
3921.05,93.4375
3905.26,93.4375
3889.47,92.8125
3873.68,92.5
3857.89,92.5
3842.11,92.1875
3826.32,92.1875
3810.53,91.875
3794.74,92.1875
3778.95,91.875
3763.16,91.875
3747.37,91.5625
3731.58,90.9375
3715.79,90.9375
3700.0,90.9375
3684.21,90.9375
3668.42,90.3125
3652.63,90.0
3636.84,89.0625
3621.05,88.75
3605.26,88.4375
3589.47,87.5
3573.68,87.1875
3557.89,86.875
3542.11,86.25
3526.32,85.9375
3510.53,85.3125
3494.74,84.6875
3478.95,84.375
3463.16,84.375
3447.37,84.375
3431.58,85.0
3415.79,85.9375
3400.0,86.5625
3384.21,88.125
3368.42,89.375
3352.63,89.375
3336.84,87.5
3321.05,85.3125
3305.26,75.3125
3289.47,32.5
3273.68,8.75
3257.89,4.6875
3242.11,9.6875
3226.32,20.3125
3210.53,17.8125
3194.74,26.5625
3178.95,73.75
3163.16,84.6875
3147.37,88.75
3131.58,89.6875
3115.79,89.0625
3100.0,90.0
3084.21,90.0
3068.42,90.0
3052.63,90.625
3036.84,91.25
3021.05,91.5625
3005.26,91.875
2989.47,93.125
2973.68,93.4375
2957.89,93.4375
2942.11,93.4375
2926.32,93.75
2910.53,93.4375
2894.74,93.4375
2878.95,93.125
2863.16,93.125
2847.37,93.125
2831.58,93.4375
2815.79,93.4375
2800.0,93.4375
2784.21,93.125
2768.42,93.125
2752.63,93.4375
2736.84,93.75
2721.05,94.0625
2705.26,94.0625
2689.47,94.0625
2673.68,94.0625
2657.89,94.0625
2642.11,94.0625
2626.32,94.0625
2610.53,94.375
2594.74,94.375
2578.95,94.375
2563.16,94.375
2547.37,94.6875
2531.58,94.6875
2515.79,94.6875
2500.0,94.6875
2484.21,94.6875
2468.42,94.6875
2452.63,95.0
2436.84,94.6875
2421.05,94.6875
2405.26,94.375
2389.47,94.375
2373.68,94.375
2357.89,94.0625
2342.11,93.75
2326.32,93.4375
2310.53,92.8125
2294.74,90.9375
2278.95,81.5625
2263.16,40.625
2247.37,45.625
2231.58,82.5
2215.79,90.0
2200.0,90.9375
2184.21,91.5625
2168.42,91.875
2152.63,92.1875
2136.84,93.125
2121.05,93.75
2105.26,93.75
2089.47,94.0625
2073.68,94.375
2057.89,94.375
2042.11,94.375
2026.32,94.0625
2010.53,93.4375
1994.74,93.4375
1978.95,93.4375
1963.16,93.4375
1947.37,94.0625
1931.58,93.75
1915.79,91.875
1900.0,87.5
1884.21,66.25
1868.42,42.5
1852.63,49.0625
1836.84,65.625
1821.05,80.0
1805.26,88.75
1789.47,86.875
1773.68,73.75
1757.89,64.375
1742.11,62.8125
1726.32,71.5625
1710.53,76.875
1694.74,82.1875
1678.95,80.0
1663.16,74.375
1647.37,78.125
1631.58,71.25
1615.79,52.8125
1600.0,36.875
1584.21,35.3125
1568.42,30.625
1552.63,52.5
1536.84,68.4375
1521.05,79.0625
1505.26,81.875
1489.47,84.0625
1473.68,87.1875
1457.89,87.1875
1442.11,87.1875
1426.32,88.4375
1410.53,85.3125
1394.74,89.6875
1378.95,88.4375
1363.16,90.9375
1347.37,86.875
1331.58,88.125
1315.79,88.125
1300.0,88.75
1284.21,88.4375
1268.42,81.875
1252.63,82.8125
1236.84,80.0
1221.05,70.9375
1205.26,80.0
1189.47,70.9375
1173.68,80.9375
1157.89,75.625
1142.11,80.3125
1126.32,85.625
1110.53,87.1875
1094.74,88.4375
1078.95,88.125
1063.16,89.375
1047.37,91.25
1031.58,90.625
1015.79,88.125
1000.0,89.0625
984.211,90.9375
968.421,91.5625
952.632,85.3125
936.842,81.25
921.053,90.9375
905.263,91.875
889.474,91.5625
873.684,89.6875
857.895,87.5
842.105,84.6875
826.316,90.3125
810.526,93.125
794.737,94.375
778.947,94.375
763.158,93.75
747.368,93.75
731.579,93.125
715.789,93.125
700,94.375
684.211,94.375
668.421,92.8125
652.632,92.1875
636.842,92.1875
621.053,92.5
605.263,93.125
589.474,92.8125
573.684,91.875
557.895,91.875
542.105,90.9375
526.316,90.0
510.526,88.75
494.737,88.4375
478.947,88.125
463.158,87.8125
447.368,87.1875
431.579,82.8125
415.789,73.4375
400.0,67.1875