File: data/public/sdbs/processed/samples/6-chloro-2-quinolinecarbonitrile.csv
Wavenumber,Intensity
4000.0,0.0
3984.21,70.0
3968.42,70.0
3952.63,69.6875
3936.84,69.375
3921.05,69.0625
3905.26,68.75
3889.47,68.4375
3873.68,68.125
3857.89,67.1875
3842.11,66.875
3826.32,68.125
3810.53,67.1875
3794.74,66.875
3778.95,66.875
3763.16,66.875
3747.37,66.875
3731.58,66.5625
3715.79,66.875
3700.0,67.1875
3684.21,66.875
3668.42,66.5625
3652.63,66.25
3636.84,66.5625
3621.05,65.9375
3605.26,65.625
3589.47,64.6875
3573.68,64.375
3557.89,64.0625
3542.11,64.375
3526.32,64.0625
3510.53,63.4375
3494.74,62.5
3478.95,62.5
3463.16,62.5
3447.37,61.5625
3431.58,61.875
3415.79,62.5
3400.0,62.1875
3384.21,63.4375
3368.42,61.5625
3352.63,60.9375
3336.84,60.0
3321.05,56.875
3305.26,50.625
3289.47,27.5
3273.68,10.0
3257.89,4.6875
3242.11,9.375
3226.32,23.4375
3210.53,17.1875
3194.74,28.125
3178.95,65.0
3163.16,70.625
3147.37,72.1875
3131.58,71.875
3115.79,71.25
3100.0,72.1875
3084.21,71.5625
3068.42,71.5625
3052.63,72.1875
3036.84,72.8125
3021.05,73.4375
3005.26,73.75
2989.47,74.0625
2973.68,74.6875
2957.89,75.0
2942.11,75.3125
2926.32,75.3125
2910.53,75.625
2894.74,75.9375
2878.95,75.9375
2863.16,75.9375
2847.37,76.25
2831.58,76.25
2815.79,76.875
2800.0,77.1875
2784.21,79.375
2768.42,60.9375
2752.63,76.25
2736.84,77.5
2721.05,78.125
2705.26,78.75
2689.47,79.0625
2673.68,79.375
2657.89,80.0
2642.11,80.3125
2626.32,80.3125
2610.53,80.9375
2594.74,81.25
2578.95,81.5625
2563.16,81.25
2547.37,80.625
2531.58,80.0
2515.79,80.3125
2500.0,82.1875
2484.21,82.5
2468.42,82.8125
2452.63,83.125
2436.84,82.8125
2421.05,82.5
2405.26,82.8125
2389.47,83.4375
2373.68,84.0625
2357.89,85.0
2342.11,83.4375
2326.32,78.125
2310.53,82.5
2294.74,80.0
2278.95,83.75
2263.16,85.0
2247.37,85.0
2231.58,85.0
2215.79,85.0
2200.0,85.3125
2184.21,85.625
2168.42,85.9375
2152.63,86.25
2136.84,86.25
2121.05,86.25
2105.26,89.0625
2089.47,82.1875
2073.68,72.5
2057.89,71.875
2042.11,72.1875
2026.32,50.9375
2010.53,78.75
1994.74,78.75
1978.95,81.25
1963.16,83.4375
1947.37,87.1875
1931.58,89.6875
1915.79,94.375
1900.0,22.5
1884.21,53.4375
1868.42,41.25
1852.63,40.3125
1836.84,60.9375
1821.05,74.0625
1805.26,80.625
1789.47,82.8125
1773.68,77.8125
1757.89,64.0625
1742.11,36.25
1726.32,68.75
1710.53,77.8125
1694.74,80.625
1678.95,62.5
1663.16,75.3125
1647.37,78.4375
1631.58,78.4375
1615.79,84.375
1600.0,77.8125
1584.21,85.9375
1568.42,87.1875
1552.63,89.0625
1536.84,85.0
1521.05,67.8125
1505.26,50.9375
1489.47,82.1875
1473.68,64.0625
1457.89,82.1875
1442.11,86.25
1426.32,81.5625
1410.53,86.25
1394.74,81.25
1378.95,86.5625
1363.16,90.0
1347.37,93.4375
1331.58,26.5625
1315.79,67.8125
1300.0,77.8125
1284.21,82.5
1268.42,84.0625
1252.63,85.3125
1236.84,85.9375
1221.05,86.875
1205.26,86.875
1189.47,75.0
1173.68,84.6875
1157.89,85.3125
1142.11,86.875
1126.32,86.875
1110.53,87.1875
1094.74,65.625
1078.95,59.6875
1063.16,51.25
1047.37,84.6875
1031.58,82.8125
1015.79,79.375
1000.0,31.5625
984.211,39.375
968.421,79.6875
952.632,62.5
936.842,72.1875
921.053,85.0
905.263,86.25
889.474,86.875
873.684,86.875
857.895,85.0
842.105,82.5
826.316,80.9375
810.526,89.375
794.737,90.3125
778.947,70.0
763.158,90.9375
747.368,79.6875
731.579,85.0
715.789,88.4375
700,89.375
684.211,89.375
668.421,88.75
652.632,88.4375
636.842,88.75
621.053,75.9375
605.263,88.4375
589.474,89.6875
573.684,89.6875
557.895,89.375
542.105,86.25
526.316,83.4375
510.526,83.4375
494.737,87.1875
478.947,82.1875
463.158,78.75
447.368,74.375
431.579,62.1875
415.789,58.125
400.0,58.4375