File: data/public/sdbs/processed/samples/8,10-diacetoxy-2,3-epoxy-4,10a,12-trihydroxy-1,1,4,12-tetramethylperhydro-7,8a-ethanobenz(f)azulene.csv
Wavenumber,Intensity
4000.0,0.0
3984.21,94.0625
3968.42,94.0625
3952.63,93.75
3936.84,93.75
3921.05,93.75
3905.26,94.0625
3889.47,93.4375
3873.68,93.125
3857.89,93.4375
3842.11,93.4375
3826.32,93.4375
3810.53,93.4375
3794.74,94.0625
3778.95,93.4375
3763.16,93.4375
3747.37,92.8125
3731.58,92.5
3715.79,91.5625
3700.0,89.375
3684.21,84.0625
3668.42,60.3125
3652.63,50.3125
3636.84,43.4375
3621.05,33.75
3605.26,51.5625
3589.47,47.5
3573.68,34.6875
3557.89,35.3125
3542.11,57.1875
3526.32,66.25
3510.53,72.5
3494.74,77.5
3478.95,79.6875
3463.16,81.25
3447.37,82.5
3431.58,83.4375
3415.79,84.6875
3400.0,85.9375
3384.21,85.9375
3368.42,87.1875
3352.63,87.1875
3336.84,84.6875
3321.05,78.4375
3305.26,65.625
3289.47,36.5625
3273.68,8.4375
3257.89,5.625
3242.11,11.5625
3226.32,29.6875
3210.53,25.9375
3194.74,37.5
3178.95,79.0625
3163.16,85.9375
3147.37,88.4375
3131.58,89.375
3115.79,88.4375
3100.0,89.0625
3084.21,89.0625
3068.42,89.375
3052.63,90.625
3036.84,90.9375
3021.05,91.5625
3005.26,92.5
2989.47,93.125
2973.68,92.8125
2957.89,92.8125
2942.11,92.8125
2926.32,93.125
2910.53,93.125
2894.74,93.4375
2878.95,93.125
2863.16,93.4375
2847.37,93.4375
2831.58,93.75
2815.79,93.75
2800.0,93.75
2784.21,93.75
2768.42,93.75
2752.63,93.75
2736.84,93.75
2721.05,93.75
2705.26,94.0625
2689.47,94.375
2673.68,94.0625
2657.89,94.0625
2642.11,94.375
2626.32,94.6875
2610.53,94.375
2594.74,94.6875
2578.95,94.6875
2563.16,94.6875
2547.37,94.6875
2531.58,94.6875
2515.79,94.6875
2500.0,94.6875
2484.21,95.0
2468.42,94.6875
2452.63,94.6875
2436.84,94.375
2421.05,94.375
2405.26,94.0625
2389.47,94.0625
2373.68,93.75
2357.89,93.4375
2342.11,92.5
2326.32,91.5625
2310.53,91.5625
2294.74,89.0625
2278.95,76.875
2263.16,44.6875
2247.37,8.125
2231.58,13.4375
2215.79,54.6875
2200.0,77.1875
2184.21,83.75
2168.42,86.5625
2152.63,89.0625
2136.84,89.0625
2121.05,89.375
2105.26,91.25
2089.47,92.5
2073.68,93.4375
2057.89,93.4375
2042.11,93.75
2026.32,93.75
2010.53,93.4375
1994.74,93.125
1978.95,92.5
1963.16,92.1875
1947.37,92.1875
1931.58,91.5625
1915.79,89.6875
1900.0,85.0
1884.21,58.125
1868.42,36.25
1852.63,43.4375
1836.84,49.6875
1821.05,67.1875
1805.26,77.1875
1789.47,76.875
1773.68,63.4375
1757.89,46.25
1742.11,30.0
1726.32,33.4375
1710.53,50.625
1694.74,70.625
1678.95,66.5625
1663.16,71.25
1647.37,70.3125
1631.58,65.9375
1615.79,55.0
1600.0,41.25
1584.21,8.4375
1568.42,13.75
1552.63,25.9375
1536.84,60.625
1521.05,61.25
1505.26,70.3125
1489.47,56.5625
1473.68,58.125
1457.89,70.0
1442.11,50.9375
1426.32,68.75
1410.53,47.8125
1394.74,51.875
1378.95,59.6875
1363.16,71.875
1347.37,37.1875
1331.58,75.625
1315.79,74.375
1300.0,55.0
1284.21,22.5
1268.42,53.4375
1252.63,55.625
1236.84,77.1875
1221.05,69.0625
1205.26,74.6875
1189.47,73.4375
1173.68,82.5
1157.89,65.0
1142.11,29.375
1126.32,59.6875
1110.53,70.9375
1094.74,61.875
1078.95,59.0625
1063.16,63.75
1047.37,78.4375
1031.58,61.25
1015.79,90.0
1000.0,91.5625
984.211,85.0
968.421,82.5
952.632,78.75
936.842,93.4375
921.053,93.75
905.263,73.125
889.474,90.625
873.684,85.3125
857.895,91.25
842.105,88.125
826.316,91.875
810.526,90.625
794.737,90.3125
778.947,93.75
763.158,91.25
747.368,85.9375
731.579,78.125
715.789,79.0625
700,73.125
684.211,60.625
668.421,61.25
652.632,66.5625
636.842,70.0
621.053,72.5
605.263,82.5
589.474,86.25
573.684,86.5625
557.895,86.5625
542.105,86.25
526.316,82.5
510.526,83.4375
494.737,83.125
478.947,81.25
463.158,82.5
447.368,81.5625
431.579,76.875
415.789,72.1875
400.0,69.6875