File: data/public/sdbs/processed/samples/methyl 3,3-dimethyl-7-oxo-6-phenoxyacetamido-4-thia-1-azabicyclo[3.2.0]heptane-2-carboxylate 4-oxide.csv
Wavenumber,Intensity
4000.0,0.0
3984.21,91.25
3968.42,91.25
3952.63,90.9375
3936.84,90.9375
3921.05,90.9375
3905.26,90.625
3889.47,90.625
3873.68,90.3125
3857.89,90.3125
3842.11,90.625
3826.32,90.3125
3810.53,90.3125
3794.74,90.3125
3778.95,90.3125
3763.16,90.3125
3747.37,90.0
3731.58,89.375
3715.79,89.6875
3700.0,89.6875
3684.21,90.0
3668.42,90.0
3652.63,89.375
3636.84,88.75
3621.05,88.75
3605.26,88.4375
3589.47,87.8125
3573.68,87.5
3557.89,80.625
3542.11,81.5625
3526.32,85.3125
3510.53,85.3125
3494.74,85.0
3478.95,84.6875
3463.16,84.6875
3447.37,84.375
3431.58,84.375
3415.79,85.0
3400.0,85.3125
3384.21,86.5625
3368.42,86.5625
3352.63,85.9375
3336.84,84.375
3321.05,81.875
3305.26,73.4375
3289.47,40.625
3273.68,13.4375
3257.89,5.3125
3242.11,9.6875
3226.32,25.3125
3210.53,19.0625
3194.74,30.0
3178.95,75.625
3163.16,83.75
3147.37,87.5
3131.58,88.125
3115.79,87.5
3100.0,87.8125
3084.21,87.5
3068.42,88.125
3052.63,88.75
3036.84,89.0625
3021.05,89.375
3005.26,90.0
2989.47,90.9375
2973.68,91.25
2957.89,91.5625
2942.11,91.875
2926.32,91.875
2910.53,91.875
2894.74,91.875
2878.95,91.875
2863.16,92.1875
2847.37,92.1875
2831.58,92.1875
2815.79,92.1875
2800.0,92.5
2784.21,92.8125
2768.42,92.8125
2752.63,93.125
2736.84,93.125
2721.05,93.4375
2705.26,93.4375
2689.47,93.75
2673.68,93.75
2657.89,94.0625
2642.11,94.0625
2626.32,93.75
2610.53,94.0625
2594.74,94.0625
2578.95,94.375
2563.16,94.6875
2547.37,94.6875
2531.58,94.6875
2515.79,95.0
2500.0,94.6875
2484.21,94.6875
2468.42,94.6875
2452.63,94.6875
2436.84,94.6875
2421.05,94.6875
2405.26,94.375
2389.47,93.4375
2373.68,91.875
2357.89,84.0625
2342.11,65.0
2326.32,73.75
2310.53,88.4375
2294.74,92.1875
2278.95,91.5625
2263.16,75.9375
2247.37,76.875
2231.58,89.6875
2215.79,85.3125
2200.0,57.8125
2184.21,81.5625
2168.42,89.6875
2152.63,92.1875
2136.84,93.125
2121.05,93.4375
2105.26,93.75
2089.47,94.375
2073.68,94.375
2057.89,87.1875
2042.11,88.75
2026.32,92.8125
2010.53,93.4375
1994.74,92.5
1978.95,89.375
1963.16,70.0
1947.37,71.25
1931.58,87.8125
1915.79,72.5
1900.0,84.6875
1884.21,72.1875
1868.42,50.3125
1852.63,52.8125
1836.84,70.625
1821.05,83.4375
1805.26,90.9375
1789.47,92.1875
1773.68,88.125
1757.89,75.0
1742.11,64.375
1726.32,81.25
1710.53,87.8125
1694.74,89.0625
1678.95,90.0
1663.16,82.8125
1647.37,82.8125
1631.58,77.1875
1615.79,84.6875
1600.0,88.4375
1584.21,90.9375
1568.42,86.875
1552.63,74.0625
1536.84,68.125
1521.05,67.8125
1505.26,76.875
1489.47,85.0
1473.68,85.3125
1457.89,82.8125
1442.11,83.75
1426.32,89.6875
1410.53,89.375
1394.74,92.8125
1378.95,93.125
1363.16,92.8125
1347.37,85.9375
1331.58,85.625
1315.79,86.5625
1300.0,91.25
1284.21,77.1875
1268.42,80.625
1252.63,90.0
1236.84,92.1875
1221.05,93.4375
1205.26,86.25
1189.47,90.9375
1173.68,92.1875
1157.89,91.25
1142.11,92.1875
1126.32,92.8125
1110.53,93.125
1094.74,93.4375
1078.95,93.125
1063.16,92.8125
1047.37,93.125
1031.58,93.4375
1015.79,93.125
1000.0,93.75
984.211,94.375
968.421,94.375
952.632,94.375
936.842,93.4375
921.053,89.6875
905.263,93.125
889.474,92.8125
873.684,67.8125
857.895,89.0625
842.105,86.25
826.316,89.6875
810.526,92.8125
794.737,87.5
778.947,93.75
763.158,93.4375
747.368,91.25
731.579,88.75
715.789,90.9375
700,93.4375
684.211,94.0625
668.421,92.8125
652.632,90.9375
636.842,88.75
621.053,88.75
605.263,89.6875
589.474,91.25
573.684,92.8125
557.895,92.1875
542.105,90.625
526.316,90.0
510.526,89.375
494.737,90.0
478.947,89.0625
463.158,86.5625
447.368,80.3125
431.579,69.375
415.789,62.5
400.0,60.625