File: data/public/sdbs/processed/samples/p-(ethoxycarbonyloxy)benzoic acid.csv
Wavenumber,Intensity
4000.0,0.0
3984.21,81.25
3968.42,81.875
3952.63,82.5
3936.84,82.5
3921.05,82.5
3905.26,82.8125
3889.47,83.4375
3873.68,84.0625
3857.89,84.0625
3842.11,84.0625
3826.32,85.3125
3810.53,85.3125
3794.74,86.25
3778.95,86.5625
3763.16,86.5625
3747.37,86.875
3731.58,86.5625
3715.79,86.875
3700.0,86.5625
3684.21,86.25
3668.42,84.0625
3652.63,84.375
3636.84,86.875
3621.05,87.1875
3605.26,87.1875
3589.47,86.25
3573.68,85.9375
3557.89,85.9375
3542.11,85.9375
3526.32,85.3125
3510.53,84.375
3494.74,83.125
3478.95,81.5625
3463.16,79.0625
3447.37,76.5625
3431.58,74.6875
3415.79,72.1875
3400.0,67.5
3384.21,60.0
3368.42,58.75
3352.63,58.125
3336.84,58.125
3321.05,51.5625
3305.26,42.1875
3289.47,28.4375
3273.68,12.5
3257.89,5.3125
3242.11,8.75
3226.32,20.3125
3210.53,16.875
3194.74,22.5
3178.95,50.625
3163.16,57.5
3147.37,63.75
3131.58,66.25
3115.79,65.625
3100.0,64.6875
3084.21,59.0625
3068.42,59.375
3052.63,62.5
3036.84,64.6875
3021.05,65.3125
3005.26,63.125
2989.47,63.125
2973.68,66.25
2957.89,70.625
2942.11,73.75
2926.32,76.5625
2910.53,78.4375
2894.74,79.6875
2878.95,81.875
2863.16,83.75
2847.37,85.625
2831.58,87.5
2815.79,87.8125
2800.0,88.125
2784.21,88.75
2768.42,90.0
2752.63,90.9375
2736.84,91.5625
2721.05,92.1875
2705.26,93.75
2689.47,93.4375
2673.68,93.75
2657.89,93.125
2642.11,93.4375
2626.32,94.0625
2610.53,94.6875
2594.74,94.6875
2578.95,94.6875
2563.16,94.375
2547.37,94.375
2531.58,92.1875
2515.79,91.25
2500.0,91.25
2484.21,91.5625
2468.42,91.875
2452.63,91.5625
2436.84,90.625
2421.05,89.6875
2405.26,88.4375
2389.47,87.5
2373.68,86.25
2357.89,83.4375
2342.11,78.75
2326.32,70.9375
2310.53,54.6875
2294.74,15.625
2278.95,4.6875
2263.16,28.75
2247.37,71.25
2231.58,79.375
2215.79,72.1875
2200.0,27.5
2184.21,10.3125
2168.42,18.125
2152.63,42.1875
2136.84,65.3125
2121.05,75.3125
2105.26,83.4375
2089.47,85.9375
2073.68,41.25
2057.89,61.5625
2042.11,64.375
2026.32,86.5625
2010.53,89.0625
1994.74,87.5
1978.95,88.75
1963.16,91.5625
1947.37,91.5625
1931.58,74.6875
1915.79,88.125
1900.0,88.4375
1884.21,64.375
1868.42,49.0625
1852.63,54.0625
1836.84,47.1875
1821.05,34.0625
1805.26,47.1875
1789.47,64.0625
1773.68,76.5625
1757.89,63.125
1742.11,30.3125
1726.32,74.0625
1710.53,74.375
1694.74,63.75
1678.95,42.5
1663.16,32.1875
1647.37,18.4375
1631.58,15.3125
1615.79,11.25
1600.0,10.3125
1584.21,18.75
1568.42,31.875
1552.63,35.0
1536.84,27.1875
1521.05,47.1875
1505.26,59.0625
1489.47,69.375
1473.68,78.4375
1457.89,47.1875
1442.11,32.1875
1426.32,61.5625
1410.53,68.125
1394.74,50.625
1378.95,51.875
1363.16,70.0
1347.37,75.9375
1331.58,80.9375
1315.79,53.125
1300.0,55.9375
1284.21,71.25
1268.42,76.875
1252.63,75.9375
1236.84,51.25
1221.05,50.625
1205.26,73.75
1189.47,79.375
1173.68,75.625
1157.89,73.4375
1142.11,61.875
1126.32,52.8125
1110.53,56.5625
1094.74,44.6875
1078.95,72.8125
1063.16,80.3125
1047.37,81.5625
1031.58,45.3125
1015.79,77.1875
1000.0,61.5625
984.211,80.3125
968.421,84.6875
952.632,88.4375
936.842,80.0
921.053,33.4375
905.263,62.8125
889.474,89.6875
873.684,87.1875
857.895,43.4375
842.105,82.5
826.316,90.625
810.526,93.4375
794.737,84.375
778.947,93.4375
763.158,91.5625
747.368,47.5
731.579,87.8125
715.789,78.4375
700,92.5
684.211,92.1875
668.421,91.5625
652.632,90.9375
636.842,89.6875
621.053,83.125
605.263,55.625
589.474,75.9375
573.684,87.5
557.895,87.8125
542.105,53.75
526.316,87.5
510.526,88.4375
494.737,86.875
478.947,85.9375
463.158,84.6875
447.368,81.875
431.579,76.5625
415.789,63.4375
400.0,54.375