File: data/public/sdbs/processed/samples/p-ethoxyphenyl p-(methoxycarbonyloxy)benzoate.csv
Wavenumber,Intensity
4000.0,0.0
3984.21,89.6875
3968.42,89.0625
3952.63,89.375
3936.84,90.0
3921.05,88.75
3905.26,88.75
3889.47,89.375
3873.68,89.6875
3857.89,89.375
3842.11,90.0
3826.32,90.0
3810.53,89.6875
3794.74,90.3125
3778.95,89.6875
3763.16,90.0
3747.37,89.375
3731.58,89.375
3715.79,90.3125
3700.0,89.6875
3684.21,89.375
3668.42,89.0625
3652.63,89.0625
3636.84,89.0625
3621.05,88.75
3605.26,89.0625
3589.47,89.0625
3573.68,89.375
3557.89,89.375
3542.11,89.0625
3526.32,89.375
3510.53,89.375
3494.74,89.0625
3478.95,89.0625
3463.16,88.125
3447.37,87.8125
3431.58,87.1875
3415.79,87.1875
3400.0,86.25
3384.21,85.3125
3368.42,85.625
3352.63,82.5
3336.84,82.1875
3321.05,78.75
3305.26,68.125
3289.47,32.8125
3273.68,12.1875
3257.89,5.9375
3242.11,9.6875
3226.32,23.125
3210.53,17.8125
3194.74,26.25
3178.95,74.375
3163.16,84.375
3147.37,88.4375
3131.58,89.375
3115.79,87.5
3100.0,88.4375
3084.21,88.4375
3068.42,88.75
3052.63,89.375
3036.84,89.375
3021.05,90.0
3005.26,91.25
2989.47,91.5625
2973.68,92.1875
2957.89,92.1875
2942.11,92.5
2926.32,92.5
2910.53,92.5
2894.74,92.5
2878.95,92.8125
2863.16,92.8125
2847.37,92.8125
2831.58,92.8125
2815.79,93.125
2800.0,93.125
2784.21,93.125
2768.42,93.125
2752.63,93.125
2736.84,93.125
2721.05,93.4375
2705.26,93.4375
2689.47,93.75
2673.68,93.75
2657.89,94.0625
2642.11,93.75
2626.32,93.75
2610.53,94.0625
2594.74,94.375
2578.95,94.375
2563.16,94.375
2547.37,94.375
2531.58,94.375
2515.79,94.375
2500.0,94.375
2484.21,94.375
2468.42,94.6875
2452.63,95.0
2436.84,94.6875
2421.05,94.6875
2405.26,94.6875
2389.47,94.6875
2373.68,94.375
2357.89,94.0625
2342.11,93.125
2326.32,91.875
2310.53,86.875
2294.74,68.75
2278.95,46.875
2263.16,72.5
2247.37,56.5625
2231.58,56.875
2215.79,81.25
2200.0,86.875
2184.21,88.4375
2168.42,91.5625
2152.63,92.1875
2136.84,92.5
2121.05,92.8125
2105.26,93.4375
2089.47,92.8125
2073.68,82.8125
2057.89,82.1875
2042.11,91.25
2026.32,93.125
2010.53,93.4375
1994.74,93.4375
1978.95,93.125
1963.16,91.25
1947.37,78.75
1931.58,54.6875
1915.79,76.5625
1900.0,83.4375
1884.21,66.25
1868.42,41.5625
1852.63,43.125
1836.84,52.1875
1821.05,79.6875
1805.26,85.0
1789.47,85.9375
1773.68,80.3125
1757.89,70.0
1742.11,62.5
1726.32,76.25
1710.53,82.5
1694.74,82.5
1678.95,81.5625
1663.16,76.875
1647.37,69.0625
1631.58,64.0625
1615.79,52.8125
1600.0,32.5
1584.21,35.3125
1568.42,37.5
1552.63,49.375
1536.84,63.75
1521.05,56.25
1505.26,39.6875
1489.47,34.6875
1473.68,50.9375
1457.89,57.1875
1442.11,56.875
1426.32,69.6875
1410.53,76.25
1394.74,79.6875
1378.95,70.625
1363.16,80.3125
1347.37,77.1875
1331.58,45
1315.79,55.625
1300.0,67.1875
1284.21,67.5
1268.42,79.0625
1252.63,78.75
1236.84,70.3125
1221.05,80.9375
1205.26,83.4375
1189.47,84.0625
1173.68,83.75
1157.89,83.4375
1142.11,60.9375
1126.32,80.0
1110.53,80.9375
1094.74,85.625
1078.95,85.9375
1063.16,81.875
1047.37,71.25
1031.58,85.625
1015.79,86.875
1000.0,85.9375
984.211,86.25
968.421,88.125
952.632,75.9375
936.842,86.25
921.053,78.125
905.263,82.5
889.474,85.3125
873.684,87.8125
857.895,85.9375
842.105,77.1875
826.316,73.125
810.526,89.375
794.737,90.625
778.947,91.5625
763.158,92.1875
747.368,92.8125
731.579,93.4375
715.789,92.5
700,92.5
684.211,93.125
668.421,93.75
652.632,90.3125
636.842,89.0625
621.053,90.3125
605.263,92.8125
589.474,94.375
573.684,86.25
557.895,91.5625
542.105,92.1875
526.316,91.25
510.526,90.9375
494.737,90.9375
478.947,92.5
463.158,94.6875
447.368,92.1875
431.579,86.25
415.789,81.875
400.0,79.6875