File: data/public/sdbs/processed/samples/p-ethoxyphenyl p-(pentyloxycarbonyloxy)benzoate.csv
Wavenumber,Intensity
4000.0,0.0
3984.21,92.1875
3968.42,91.875
3952.63,91.5625
3936.84,91.5625
3921.05,90.9375
3905.26,91.25
3889.47,91.25
3873.68,90.625
3857.89,90.9375
3842.11,90.3125
3826.32,90.0
3810.53,90.0
3794.74,89.6875
3778.95,89.375
3763.16,89.375
3747.37,89.0625
3731.58,88.4375
3715.79,88.75
3700.0,88.125
3684.21,87.8125
3668.42,86.25
3652.63,85.3125
3636.84,85.625
3621.05,85.0
3605.26,85.3125
3589.47,84.375
3573.68,84.6875
3557.89,85.9375
3542.11,85.9375
3526.32,86.25
3510.53,85.9375
3494.74,85.625
3478.95,85.625
3463.16,85.0
3447.37,84.6875
3431.58,84.0625
3415.79,83.75
3400.0,83.75
3384.21,80.625
3368.42,80.625
3352.63,74.0625
3336.84,78.125
3321.05,75.625
3305.26,62.8125
3289.47,24.6875
3273.68,11.5625
3257.89,5.625
3242.11,13.125
3226.32,29.375
3210.53,20.625
3194.74,36.5625
3178.95,77.5
3163.16,83.75
3147.37,87.1875
3131.58,87.1875
3115.79,86.5625
3100.0,87.5
3084.21,87.5
3068.42,87.8125
3052.63,88.4375
3036.84,87.8125
3021.05,88.4375
3005.26,89.6875
2989.47,90.3125
2973.68,90.3125
2957.89,90.3125
2942.11,90.0
2926.32,90.3125
2910.53,90.0
2894.74,90.3125
2878.95,90.9375
2863.16,90.9375
2847.37,90.9375
2831.58,90.9375
2815.79,90.9375
2800.0,90.625
2784.21,91.25
2768.42,91.5625
2752.63,92.5
2736.84,93.125
2721.05,92.1875
2705.26,92.5
2689.47,92.8125
2673.68,93.125
2657.89,91.875
2642.11,91.875
2626.32,91.5625
2610.53,91.875
2594.74,92.5
2578.95,92.8125
2563.16,92.5
2547.37,92.8125
2531.58,91.875
2515.79,90.9375
2500.0,91.5625
2484.21,93.4375
2468.42,94.0625
2452.63,94.375
2436.84,94.6875
2421.05,93.4375
2405.26,92.1875
2389.47,92.1875
2373.68,92.1875
2357.89,91.25
2342.11,88.125
2326.32,83.75
2310.53,71.5625
2294.74,25.9375
2278.95,5.625
2263.16,25.9375
2247.37,11.25
2231.58,28.125
2215.79,64.375
2200.0,74.375
2184.21,77.5
2168.42,85.3125
2152.63,88.125
2136.84,89.6875
2121.05,90.3125
2105.26,90.9375
2089.47,88.125
2073.68,52.8125
2057.89,55.0
2042.11,79.375
2026.32,89.0625
2010.53,90.9375
1994.74,90.625
1978.95,89.6875
1963.16,85.9375
1947.37,59.375
1931.58,11.5625
1915.79,55.9375
1900.0,70.0
1884.21,46.25
1868.42,35.3125
1852.63,42.1875
1836.84,56.5625
1821.05,77.1875
1805.26,73.125
1789.47,77.8125
1773.68,37.1875
1757.89,45.9375
1742.11,55.625
1726.32,75.625
1710.53,76.875
1694.74,73.125
1678.95,65.0
1663.16,48.75
1647.37,39.375
1631.58,29.0625
1615.79,12.5
1600.0,5.0
1584.21,5.625
1568.42,6.5625
1552.63,13.75
1536.84,8.4375
1521.05,9.6875
1505.26,7.8125
1489.47,5.0
1473.68,17.8125
1457.89,12.1875
1442.11,20.9375
1426.32,42.1875
1410.53,54.375
1394.74,54.6875
1378.95,45
1363.16,62.8125
1347.37,41.875
1331.58,12.8125
1315.79,34.0625
1300.0,46.5625
1284.21,39.6875
1268.42,66.5625
1252.63,33.75
1236.84,46.875
1221.05,67.5
1205.26,71.875
1189.47,40.625
1173.68,53.125
1157.89,69.375
1142.11,75.0
1126.32,66.875
1110.53,70.9375
1094.74,73.125
1078.95,69.375
1063.16,70.9375
1047.37,37.8125
1031.58,61.25
1015.79,78.4375
1000.0,77.5
984.211,79.375
968.421,77.8125
952.632,61.5625
936.842,78.75
921.053,66.875
905.263,56.875
889.474,70.625
873.684,71.875
857.895,78.4375
842.105,67.8125
826.316,81.5625
810.526,87.1875
794.737,81.25
778.947,86.25
763.158,92.1875
747.368,83.4375
731.579,92.5
715.789,91.25
700,90.3125
684.211,93.125
668.421,94.0625
652.632,92.8125
636.842,70.0
621.053,89.375
605.263,93.75
589.474,94.0625
573.684,79.6875
557.895,74.0625
542.105,81.25
526.316,84.6875
510.526,85.9375
494.737,85.9375
478.947,86.25
463.158,86.25
447.368,84.375
431.579,77.1875
415.789,65.625
400.0,58.4375