File: data/public/sdbs/processed/samples/polyethylene glycol mono-p-nonylphenyl ether.csv
Wavenumber,Intensity
4000.0,0.0
3984.21,86.25
3968.42,88.125
3952.63,89.6875
3936.84,91.25
3921.05,92.8125
3905.26,93.125
3889.47,93.75
3873.68,94.0625
3857.89,94.0625
3842.11,93.75
3826.32,94.0625
3810.53,93.75
3794.74,93.4375
3778.95,91.875
3763.16,89.375
3747.37,84.375
3731.58,75.625
3715.79,67.1875
3700.0,61.25
3684.21,55.0
3668.42,48.4375
3652.63,43.75
3636.84,41.875
3621.05,41.25
3605.26,40.625
3589.47,39.6875
3573.68,38.125
3557.89,36.875
3542.11,36.5625
3526.32,37.1875
3510.53,39.0625
3494.74,42.1875
3478.95,46.5625
3463.16,51.5625
3447.37,57.1875
3431.58,62.5
3415.79,68.4375
3400.0,72.5
3384.21,75.0
3368.42,74.375
3352.63,67.5
3336.84,63.125
3321.05,67.1875
3305.26,51.875
3289.47,13.125
3273.68,6.875
3257.89,6.25
3242.11,5.9375
3226.32,5.3125
3210.53,5.0
3194.74,10.625
3178.95,22.5
3163.16,33.75
3147.37,46.5625
3131.58,52.5
3115.79,54.0625
3100.0,60.9375
3084.21,71.5625
3068.42,80.0
3052.63,81.875
3036.84,82.5
3021.05,83.125
3005.26,84.6875
2989.47,85.3125
2973.68,85.9375
2957.89,86.5625
2942.11,87.5
2926.32,89.0625
2910.53,89.0625
2894.74,89.6875
2878.95,90.625
2863.16,90.3125
2847.37,90.3125
2831.58,90.0
2815.79,89.6875
2800.0,89.375
2784.21,89.375
2768.42,89.375
2752.63,89.6875
2736.84,88.75
2721.05,88.4375
2705.26,88.125
2689.47,87.8125
2673.68,87.8125
2657.89,88.4375
2642.11,88.4375
2626.32,87.5
2610.53,84.375
2594.74,81.875
2578.95,80.625
2563.16,80.0
2547.37,80.3125
2531.58,81.25
2515.79,83.4375
2500.0,85.625
2484.21,87.5
2468.42,88.125
2452.63,88.125
2436.84,89.6875
2421.05,92.1875
2405.26,93.4375
2389.47,94.375
2373.68,94.6875
2357.89,94.6875
2342.11,94.375
2326.32,94.0625
2310.53,93.125
2294.74,92.1875
2278.95,90.9375
2263.16,90.9375
2247.37,91.25
2231.58,91.5625
2215.79,92.5
2200.0,92.8125
2184.21,92.5
2168.42,90.9375
2152.63,87.5
2136.84,81.875
2121.05,77.1875
2105.26,76.25
2089.47,70.0
2073.68,33.125
2057.89,53.4375
2042.11,75.3125
2026.32,59.375
2010.53,81.875
1994.74,85.0
1978.95,82.8125
1963.16,73.125
1947.37,32.8125
1931.58,10.3125
1915.79,42.5
1900.0,35.9375
1884.21,21.875
1868.42,16.25
1852.63,15.625
1836.84,28.125
1821.05,50.3125
1805.26,55.0
1789.47,52.8125
1773.68,50.625
1757.89,33.125
1742.11,30.0
1726.32,23.125
1710.53,16.5625
1694.74,37.8125
1678.95,34.375
1663.16,31.25
1647.37,19.375
1631.58,16.875
1615.79,20.0
1600.0,27.5
1584.21,12.5
1568.42,8.125
1552.63,13.75
1536.84,25.0
1521.05,38.75
1505.26,47.5
1489.47,22.8125
1473.68,30.3125
1457.89,26.5625
1442.11,9.0625
1426.32,5.9375
1410.53,5.3125
1394.74,4.6875
1378.95,4.6875
1363.16,5.3125
1347.37,6.5625
1331.58,9.0625
1315.79,10.3125
1300.0,14.0625
1284.21,17.1875
1268.42,19.6875
1252.63,31.25
1236.84,35.9375
1221.05,40.3125
1205.26,44.0625
1189.47,49.0625
1173.68,27.1875
1157.89,19.0625
1142.11,21.5625
1126.32,25.9375
1110.53,33.125
1094.74,43.75
1078.95,48.75
1063.16,45.9375
1047.37,46.5625
1031.58,40.9375
1015.79,31.5625
1000.0,26.25
984.211,26.875
968.421,49.6875
952.632,55.0
936.842,72.5
921.053,79.375
905.263,86.875
889.474,80.9375
873.684,82.1875
857.895,85.625
842.105,92.5
826.316,94.375
810.526,91.875
794.737,85.3125
778.947,80.625
763.158,86.5625
747.368,86.25
731.579,84.375
715.789,81.5625
700,77.8125
684.211,71.5625
668.421,65.0
652.632,60.625
636.842,54.375
621.053,52.8125
605.263,56.25
589.474,59.375
573.684,59.6875
557.895,60.625
542.105,64.0625
526.316,68.75
510.526,73.125
494.737,76.5625
478.947,79.0625
463.158,81.25
447.368,82.5
431.579,82.5
415.789,81.25
400.0,80.625