File: data/public/sdbs/processed/samples/propylene carbonate.csv
Wavenumber,Intensity
4000.0,0.0
3984.21,84.6875
3968.42,84.6875
3952.63,85.625
3936.84,86.5625
3921.05,87.1875
3905.26,87.5
3889.47,88.125
3873.68,88.4375
3857.89,88.75
3842.11,88.75
3826.32,89.0625
3810.53,89.0625
3794.74,88.4375
3778.95,84.6875
3763.16,78.4375
3747.37,73.125
3731.58,68.125
3715.79,63.75
3700.0,58.75
3684.21,55.0
3668.42,52.1875
3652.63,49.6875
3636.84,46.875
3621.05,44.6875
3605.26,43.4375
3589.47,42.5
3573.68,42.1875
3557.89,42.1875
3542.11,43.125
3526.32,44.0625
3510.53,44.6875
3494.74,44.6875
3478.95,46.25
3463.16,47.8125
3447.37,50.3125
3431.58,52.5
3415.79,55.0
3400.0,57.5
3384.21,60.0
3368.42,62.1875
3352.63,63.4375
3336.84,64.375
3321.05,60.9375
3305.26,48.125
3289.47,48.4375
3273.68,57.8125
3257.89,55.0
3242.11,60.3125
3226.32,66.25
3210.53,68.4375
3194.74,69.6875
3178.95,72.5
3163.16,75.3125
3147.37,76.875
3131.58,77.8125
3115.79,78.75
3100.0,79.6875
3084.21,80.9375
3068.42,81.875
3052.63,82.8125
3036.84,83.4375
3021.05,83.75
3005.26,84.0625
2989.47,84.0625
2973.68,83.75
2957.89,84.0625
2942.11,85.0
2926.32,85.9375
2910.53,86.5625
2894.74,87.1875
2878.95,85.9375
2863.16,85.9375
2847.37,86.25
2831.58,86.5625
2815.79,87.8125
2800.0,89.375
2784.21,89.6875
2768.42,90.3125
2752.63,91.5625
2736.84,91.5625
2721.05,91.5625
2705.26,91.5625
2689.47,91.5625
2673.68,92.1875
2657.89,92.5
2642.11,92.5
2626.32,91.5625
2610.53,90.9375
2594.74,90.3125
2578.95,89.6875
2563.16,90.0
2547.37,90.0
2531.58,89.6875
2515.79,89.0625
2500.0,87.1875
2484.21,81.5625
2468.42,80.0
2452.63,79.375
2436.84,74.0625
2421.05,66.25
2405.26,55.0
2389.47,32.8125
2373.68,15.9375
2357.89,7.5
2342.11,5.625
2326.32,4.6875
2310.53,5.0
2294.74,14.6875
2278.95,35.3125
2263.16,53.125
2247.37,63.4375
2231.58,71.25
2215.79,75.3125
2200.0,75.625
2184.21,75.9375
2168.42,76.25
2152.63,75.0
2136.84,72.8125
2121.05,70.3125
2105.26,69.0625
2089.47,69.375
2073.68,70.3125
2057.89,68.4375
2042.11,63.75
2026.32,58.4375
2010.53,52.5
1994.74,49.375
1978.95,57.1875
1963.16,63.125
1947.37,66.25
1931.58,65.0
1915.79,57.5
1900.0,38.4375
1884.21,46.25
1868.42,52.1875
1852.63,51.5625
1836.84,60.9375
1821.05,65.0
1805.26,60.0
1789.47,46.5625
1773.68,27.1875
1757.89,23.75
1742.11,57.1875
1726.32,40.625
1710.53,29.0625
1694.74,50.9375
1678.95,54.0625
1663.16,62.1875
1647.37,65.625
1631.58,67.5
1615.79,68.75
1600.0,70.0
1584.21,71.5625
1568.42,72.8125
1552.63,67.1875
1536.84,59.0625
1521.05,56.5625
1505.26,28.75
1489.47,12.5
1473.68,12.8125
1457.89,18.75
1442.11,33.4375
1426.32,37.8125
1410.53,40.9375
1394.74,18.125
1378.95,29.375
1363.16,47.8125
1347.37,30.0
1331.58,21.875
1315.79,20.9375
1300.0,10.625
1284.21,16.5625
1268.42,40.0
1252.63,72.1875
1236.84,84.6875
1221.05,89.0625
1205.26,91.875
1189.47,92.1875
1173.68,85.3125
1157.89,82.5
1142.11,85.0
1126.32,90.0
1110.53,90.3125
1094.74,92.1875
1078.95,94.375
1063.16,94.6875
1047.37,93.4375
1031.58,87.1875
1015.79,78.75
1000.0,84.375
984.211,85.9375
968.421,86.5625
952.632,85.9375
936.842,78.125
921.053,27.5
905.263,50.3125
889.474,81.25
873.684,84.0625
857.895,83.125
842.105,75.625
826.316,45
810.526,70.9375
794.737,81.25
778.947,82.8125
763.158,82.5
747.368,81.5625
731.579,80.9375
715.789,80.9375
700,81.5625
684.211,81.875
668.421,81.875
652.632,82.5
636.842,82.8125
621.053,82.8125
605.263,81.875
589.474,81.5625
573.684,81.875
557.895,82.5
542.105,82.8125
526.316,83.125
510.526,83.4375
494.737,81.5625
478.947,78.4375
463.158,76.875
447.368,76.5625
431.579,76.5625
415.789,74.0625
400.0,71.875