File: data/public/sdbs/processed/samples/pyridine 1-oxide.csv
Wavenumber,Intensity
4000.0,0.0
3984.21,87.8125
3968.42,87.5
3952.63,86.875
3936.84,87.1875
3921.05,87.8125
3905.26,87.8125
3889.47,88.125
3873.68,88.125
3857.89,88.125
3842.11,88.125
3826.32,87.5
3810.53,87.1875
3794.74,87.5
3778.95,85.0
3763.16,81.875
3747.37,77.8125
3731.58,70.0
3715.79,61.875
3700.0,52.8125
3684.21,45
3668.42,37.1875
3652.63,31.25
3636.84,26.875
3621.05,24.0625
3605.26,21.875
3589.47,21.25
3573.68,20.9375
3557.89,21.25
3542.11,22.8125
3526.32,24.375
3510.53,25.625
3494.74,26.875
3478.95,28.4375
3463.16,30.9375
3447.37,34.375
3431.58,38.4375
3415.79,41.875
3400.0,44.0625
3384.21,28.125
3368.42,29.6875
3352.63,29.0625
3336.84,32.5
3321.05,44.0625
3305.26,45.625
3289.47,60.9375
3273.68,62.1875
3257.89,61.5625
3242.11,65.625
3226.32,70.625
3210.53,73.4375
3194.74,73.75
3178.95,77.5
3163.16,79.6875
3147.37,79.375
3131.58,87.1875
3115.79,88.125
3100.0,87.8125
3084.21,88.75
3068.42,88.125
3052.63,87.1875
3036.84,90.3125
3021.05,91.875
3005.26,91.875
2989.47,91.875
2973.68,90.3125
2957.89,86.25
2942.11,82.1875
2926.32,84.375
2910.53,85.9375
2894.74,86.5625
2878.95,89.0625
2863.16,90.3125
2847.37,90.0
2831.58,90.0
2815.79,87.1875
2800.0,90.0
2784.21,89.0625
2768.42,89.6875
2752.63,90.3125
2736.84,90.3125
2721.05,90.3125
2705.26,90.9375
2689.47,91.25
2673.68,87.5
2657.89,85.3125
2642.11,89.6875
2626.32,90.0
2610.53,89.6875
2594.74,90.625
2578.95,90.625
2563.16,90.3125
2547.37,90.9375
2531.58,91.875
2515.79,92.8125
2500.0,93.4375
2484.21,92.8125
2468.42,92.1875
2452.63,91.875
2436.84,91.5625
2421.05,91.25
2405.26,91.875
2389.47,93.4375
2373.68,95.0
2357.89,94.375
2342.11,93.4375
2326.32,92.8125
2310.53,92.8125
2294.74,92.5
2278.95,92.1875
2263.16,91.875
2247.37,91.5625
2231.58,90.625
2215.79,87.1875
2200.0,82.5
2184.21,76.875
2168.42,72.5
2152.63,69.6875
2136.84,69.375
2121.05,72.1875
2105.26,75.3125
2089.47,76.5625
2073.68,59.0625
2057.89,46.875
2042.11,77.1875
2026.32,88.125
2010.53,83.75
1994.74,79.6875
1978.95,90.9375
1963.16,91.875
1947.37,89.0625
1931.58,84.6875
1915.79,79.0625
1900.0,60.0
1884.21,15.0
1868.42,4.6875
1852.63,15.625
1836.84,53.75
1821.05,66.25
1805.26,75.0
1789.47,81.875
1773.68,85.9375
1757.89,80.625
1742.11,81.875
1726.32,85.9375
1710.53,88.4375
1694.74,86.5625
1678.95,85.625
1663.16,88.4375
1647.37,88.75
1631.58,84.6875
1615.79,74.375
1600.0,50.9375
1584.21,15.3125
1568.42,9.6875
1552.63,10.0
1536.84,14.0625
1521.05,37.1875
1505.26,47.5
1489.47,40.3125
1473.68,25.625
1457.89,22.1875
1442.11,57.8125
1426.32,61.875
1410.53,78.125
1394.74,84.0625
1378.95,83.75
1363.16,81.25
1347.37,84.375
1331.58,71.5625
1315.79,68.75
1300.0,83.75
1284.21,75.625
1268.42,61.25
1252.63,20.9375
1236.84,45.9375
1221.05,76.875
1205.26,86.25
1189.47,88.4375
1173.68,88.4375
1157.89,91.875
1142.11,89.375
1126.32,79.0625
1110.53,73.4375
1094.74,76.5625
1078.95,89.0625
1063.16,92.8125
1047.37,92.8125
1031.58,87.8125
1015.79,56.5625
1000.0,16.25
984.211,28.4375
968.421,58.4375
952.632,67.5
936.842,43.4375
921.053,20.3125
905.263,14.6875
889.474,35.9375
873.684,68.125
857.895,72.5
842.105,71.5625
826.316,70.3125
810.526,65.3125
794.737,38.75
778.947,18.125
763.158,38.75
747.368,55.0
731.579,61.875
715.789,61.25
700,63.125
684.211,64.0625
668.421,64.0625
652.632,64.375
636.842,65.3125
621.053,62.1875
605.263,33.125
589.474,44.0625
573.684,65.0
557.895,51.5625
542.105,56.875
526.316,66.5625
510.526,62.1875
494.737,32.5
478.947,44.0625
463.158,67.1875
447.368,79.6875
431.579,77.1875
415.789,77.1875
400.0,79.6875