File: data/public/sdbs/processed/samples/tert-pentylferrocene.csv
Wavenumber,Intensity
4000.0,0.0
3984.21,89.375
3968.42,89.6875
3952.63,89.6875
3936.84,90.0
3921.05,90.0
3905.26,90.0
3889.47,90.625
3873.68,90.3125
3857.89,90.625
3842.11,90.9375
3826.32,90.9375
3810.53,91.25
3794.74,91.875
3778.95,91.875
3763.16,92.1875
3747.37,92.1875
3731.58,92.5
3715.79,92.8125
3700.0,93.125
3684.21,93.125
3668.42,93.4375
3652.63,93.4375
3636.84,93.4375
3621.05,93.75
3605.26,94.0625
3589.47,94.0625
3573.68,94.0625
3557.89,94.375
3542.11,94.6875
3526.32,94.6875
3510.53,94.6875
3494.74,94.6875
3478.95,94.6875
3463.16,94.375
3447.37,93.125
3431.58,91.5625
3415.79,89.375
3400.0,88.4375
3384.21,85.9375
3368.42,81.875
3352.63,80.9375
3336.84,72.5
3321.05,74.375
3305.26,66.875
3289.47,48.125
3273.68,19.375
3257.89,5.9375
3242.11,8.75
3226.32,19.0625
3210.53,15.0
3194.74,19.375
3178.95,36.5625
3163.16,41.5625
3147.37,50.3125
3131.58,51.5625
3115.79,56.5625
3100.0,55.9375
3084.21,62.1875
3068.42,66.875
3052.63,62.8125
3036.84,44.0625
3021.05,43.125
3005.26,44.375
2989.47,58.4375
2973.68,68.75
2957.89,75.625
2942.11,79.6875
2926.32,82.1875
2910.53,81.5625
2894.74,84.375
2878.95,86.25
2863.16,87.5
2847.37,88.4375
2831.58,89.375
2815.79,90.3125
2800.0,88.75
2784.21,90.3125
2768.42,91.875
2752.63,90.625
2736.84,92.5
2721.05,92.5
2705.26,93.4375
2689.47,94.0625
2673.68,93.75
2657.89,87.5
2642.11,88.4375
2626.32,72.5
2610.53,77.5
2594.74,76.875
2578.95,81.875
2563.16,85.3125
2547.37,87.8125
2531.58,90.0
2515.79,90.625
2500.0,89.375
2484.21,89.6875
2468.42,89.6875
2452.63,90.9375
2436.84,90.0
2421.05,92.1875
2405.26,92.5
2389.47,93.125
2373.68,93.4375
2357.89,93.75
2342.11,93.125
2326.32,92.5
2310.53,92.8125
2294.74,93.125
2278.95,93.4375
2263.16,93.4375
2247.37,93.4375
2231.58,93.75
2215.79,94.0625
2200.0,94.0625
2184.21,94.0625
2168.42,94.0625
2152.63,93.75
2136.84,93.125
2121.05,92.8125
2105.26,89.0625
2089.47,90.9375
2073.68,91.875
2057.89,75.0
2042.11,83.4375
2026.32,76.875
2010.53,84.375
1994.74,87.1875
1978.95,87.5
1963.16,87.5
1947.37,70.3125
1931.58,86.25
1915.79,57.1875
1900.0,70.3125
1884.21,77.1875
1868.42,48.4375
1852.63,67.8125
1836.84,80.3125
1821.05,88.125
1805.26,91.25
1789.47,91.5625
1773.68,90.9375
1757.89,83.75
1742.11,80.625
1726.32,88.4375
1710.53,90.9375
1694.74,91.5625
1678.95,87.5
1663.16,91.875
1647.37,92.1875
1631.58,89.0625
1615.79,91.5625
1600.0,93.125
1584.21,93.4375
1568.42,93.4375
1552.63,93.125
1536.84,93.125
1521.05,93.4375
1505.26,84.375
1489.47,91.25
1473.68,91.5625
1457.89,90.9375
1442.11,90.625
1426.32,85.9375
1410.53,90.0
1394.74,91.875
1378.95,86.875
1363.16,90.3125
1347.37,93.125
1331.58,94.0625
1315.79,93.125
1300.0,91.25
1284.21,93.75
1268.42,85.3125
1252.63,90.9375
1236.84,93.125
1221.05,94.0625
1205.26,94.375
1189.47,94.0625
1173.68,93.75
1157.89,93.75
1142.11,93.75
1126.32,93.4375
1110.53,93.4375
1094.74,90.625
1078.95,93.4375
1063.16,93.75
1047.37,93.125
1031.58,93.125
1015.79,93.125
1000.0,93.75
984.211,94.0625
968.421,93.75
952.632,93.4375
936.842,93.4375
921.053,92.8125
905.263,92.1875
889.474,89.375
873.684,56.875
857.895,71.875
842.105,86.875
826.316,90.3125
810.526,91.875
794.737,54.375
778.947,87.8125
763.158,92.5
747.368,92.5
731.579,92.8125
715.789,93.125
700,84.0625
684.211,92.8125
668.421,93.4375
652.632,92.8125
636.842,92.5
621.053,92.5
605.263,92.8125
589.474,93.125
573.684,90.9375
557.895,87.1875
542.105,91.25
526.316,90.0
510.526,83.4375
494.737,45.3125
478.947,87.1875
463.158,92.8125
447.368,88.75
431.579,80.0
415.789,66.5625
400.0,57.8125