File: data/public/sdbs/processed/samples/tetrahydrothiophene 1,1-dioxide.csv
Wavenumber,Intensity
4000.0,0.0
3984.21,93.125
3968.42,92.5
3952.63,92.5
3936.84,92.1875
3921.05,92.1875
3905.26,91.875
3889.47,91.875
3873.68,91.5625
3857.89,91.25
3842.11,90.9375
3826.32,90.625
3810.53,90.625
3794.74,90.3125
3778.95,88.125
3763.16,82.8125
3747.37,74.0625
3731.58,66.5625
3715.79,66.25
3700.0,69.375
3684.21,70.625
3668.42,72.1875
3652.63,76.875
3636.84,79.6875
3621.05,80.3125
3605.26,80.9375
3589.47,81.25
3573.68,81.875
3557.89,82.5
3542.11,83.4375
3526.32,84.0625
3510.53,83.75
3494.74,83.75
3478.95,83.4375
3463.16,83.75
3447.37,84.6875
3431.58,85.625
3415.79,86.5625
3400.0,87.1875
3384.21,87.5
3368.42,87.5
3352.63,86.5625
3336.84,84.375
3321.05,77.1875
3305.26,70.9375
3289.47,61.25
3273.68,50.625
3257.89,68.125
3242.11,78.75
3226.32,73.75
3210.53,82.1875
3194.74,90.3125
3178.95,91.875
3163.16,92.1875
3147.37,92.5
3131.58,92.8125
3115.79,93.125
3100.0,93.125
3084.21,93.125
3068.42,93.125
3052.63,92.8125
3036.84,92.8125
3021.05,93.125
3005.26,93.125
2989.47,93.125
2973.68,93.125
2957.89,93.125
2942.11,92.8125
2926.32,92.1875
2910.53,91.5625
2894.74,90.0
2878.95,90.9375
2863.16,91.5625
2847.37,91.5625
2831.58,91.5625
2815.79,91.875
2800.0,91.875
2784.21,91.5625
2768.42,90.9375
2752.63,90.9375
2736.84,91.875
2721.05,92.5
2705.26,92.8125
2689.47,92.8125
2673.68,92.5
2657.89,92.5
2642.11,92.8125
2626.32,92.8125
2610.53,92.8125
2594.74,92.8125
2578.95,92.8125
2563.16,93.125
2547.37,92.8125
2531.58,92.8125
2515.79,93.125
2500.0,93.4375
2484.21,93.75
2468.42,93.75
2452.63,93.4375
2436.84,93.4375
2421.05,93.4375
2405.26,93.4375
2389.47,93.75
2373.68,93.75
2357.89,93.75
2342.11,93.4375
2326.32,93.4375
2310.53,93.4375
2294.74,93.4375
2278.95,93.4375
2263.16,93.4375
2247.37,93.4375
2231.58,93.125
2215.79,92.8125
2200.0,92.5
2184.21,92.5
2168.42,91.875
2152.63,90.625
2136.84,88.125
2121.05,85.0
2105.26,84.6875
2089.47,85.9375
2073.68,90.0
2057.89,92.1875
2042.11,94.6875
2026.32,94.6875
2010.53,94.6875
1994.74,94.375
1978.95,94.0625
1963.16,93.4375
1947.37,93.125
1931.58,92.1875
1915.79,91.875
1900.0,90.9375
1884.21,86.875
1868.42,79.0625
1852.63,67.8125
1836.84,78.75
1821.05,78.125
1805.26,49.0625
1789.47,66.25
1773.68,85.625
1757.89,87.5
1742.11,86.875
1726.32,84.375
1710.53,78.4375
1694.74,67.8125
1678.95,38.4375
1663.16,10.625
1647.37,5.0
1631.58,6.5625
1615.79,17.1875
1600.0,18.125
1584.21,16.5625
1568.42,44.0625
1552.63,71.25
1536.84,77.8125
1521.05,75.3125
1505.26,72.1875
1489.47,75.625
1473.68,72.1875
1457.89,56.875
1442.11,15.625
1426.32,9.375
1410.53,32.5
1394.74,27.5
1378.95,10.625
1363.16,31.5625
1347.37,49.375
1331.58,61.5625
1315.79,83.4375
1300.0,87.8125
1284.21,84.6875
1268.42,75.625
1252.63,88.75
1236.84,90.0
1221.05,88.75
1205.26,88.4375
1189.47,89.375
1173.68,90.3125
1157.89,91.25
1142.11,90.9375
1126.32,88.125
1110.53,66.25
1094.74,39.375
1078.95,67.8125
1063.16,85.3125
1047.37,88.4375
1031.58,90.9375
1015.79,92.1875
1000.0,93.125
984.211,93.125
968.421,91.875
952.632,90.3125
936.842,88.75
921.053,87.5
905.263,85.625
889.474,79.6875
873.684,58.125
857.895,31.875
842.105,56.25
826.316,80.0
810.526,86.5625
794.737,85.0
778.947,78.125
763.158,79.0625
747.368,89.6875
731.579,90.625
715.789,90.0
700,89.0625
684.211,88.125
668.421,87.1875
652.632,81.875
636.842,51.25
621.053,38.75
605.263,82.1875
589.474,84.375
573.684,77.8125
557.895,70.3125
542.105,78.4375
526.316,80.9375
510.526,81.25
494.737,80.9375
478.947,77.8125
463.158,48.125
447.368,40.0
431.579,42.1875
415.789,47.8125
400.0,52.5